#Shining_header
#Data type:raman_database
#CAS:Not entered
#Material scientific name:Larderellite
#Manufacturer:Not entered
#Laser model:Not entered
#Spectrometer model:Not entered
#Testing unit:Not entered
#Test time:Not entered
#Other experimental details:Not entered
#Shining_data
110.9664 0.0000000E+00
111.4485 0.7050780
111.9306 1.780945
112.4127 2.744446
112.8948 3.516602
113.3769 3.887634
113.8591 3.882889
114.3412 3.268326
114.8233 3.001709
115.3054 2.489456
115.7875 1.928207
116.2696 1.357864
116.7517 0.7550660
117.2339 0.1943970
117.7160 0.1208950
118.1981 0.2808990
118.6802 9.4131000E-02
119.1623 0.6482390
119.6444 1.702118
120.1266 2.839966
120.6087 4.101929
121.0908 5.264877
121.5729 5.983215
122.0550 6.150970
122.5371 6.049942
123.0193 5.794327
123.5014 5.341858
123.9835 5.158478
124.4656 6.026108
124.9477 7.117783
125.4298 7.582031
125.9120 6.933548
126.3941 5.712891
126.8762 5.179016
127.3583 5.450775
127.8404 6.288528
128.3225 7.796387
128.8047 9.670563
129.2868 11.59308
129.7689 13.46214
130.2510 15.22572
130.7331 16.04100
131.2152 14.47852
131.6974 13.28979
132.1795 13.31651
132.6616 14.32292
133.1437 15.59056
133.6258 16.48964
134.1079 16.92799
134.5901 17.62532
135.0722 18.53371
135.5543 19.80051
136.0364 21.64307
136.5185 23.96356
137.0006 26.49109
137.4828 28.93713
137.9649 31.26614
138.4470 33.36472
138.9291 35.32677
139.4112 37.25439
139.8933 38.95641
140.3755 40.09241
140.8576 41.11395
141.3397 43.22690
141.8218 46.55498
142.3039 50.34258
142.7860 54.12527
143.2681 58.16264
143.7503 63.16443
144.2324 69.05560
144.7145 76.42085
145.1966 85.53244
145.6787 96.42633
146.1608 108.6443
146.6430 122.1869
147.1251 137.2735
147.6072 151.6968
148.0893 168.0193
148.5714 181.6384
149.0535 190.0154
149.5357 192.5014
150.0178 189.7696
150.4999 182.3219
150.9820 168.2234
151.4641 152.9958
151.9462 136.1642
152.4284 119.2805
152.9105 103.1183
153.3926 88.08667
153.8747 74.37546
154.3568 62.42612
154.8389 53.05653
155.3211 44.88753
155.8032 38.07907
156.2853 32.30429
156.7674 27.29672
157.2495 22.92714
157.7316 19.17334
158.2138 15.98314
158.6959 13.56549
159.1780 11.37837
159.6601 9.188049
160.1422 7.123093
160.6243 5.538940
161.1065 4.746414
161.5886 4.560318
162.0707 4.041382
162.5528 2.921951
163.0349 1.761658
163.5170 0.8088840
163.9991 6.2546000E-02
164.4813 0.4429170
164.9634 0.5689390
165.4455 0.4510040
165.9276 0.4341740
166.4097 0.5729680
166.8918 0.8267360
167.3740 1.162643
167.8561 1.599960
168.3382 2.021210
168.8203 2.206161
169.3024 2.305008
169.7845 2.120148
170.2667 1.413193
170.7488 0.4713750
171.2309 2.2280000E-03
171.7130 0.2598570
172.1951 0.5175630
172.6772 0.5013890
173.1594 0.2983700
173.6415 2.4932999E-02
174.1236 0.2726750
174.6057 0.5843810
175.0878 0.8375090
175.5699 1.004364
176.0521 1.121658
176.5342 1.120880
177.0163 1.102554
177.4984 1.260117
177.9805 1.772812
178.4626 2.644379
178.9448 3.230331
179.4269 3.446182
179.9090 3.462280
180.3911 3.052872
180.8732 2.440567
181.3553 2.160019
181.8375 2.737457
182.3196 4.316193
182.8017 5.284622
183.2838 5.356781
183.7659 5.225342
184.2480 5.250488
184.7301 5.415329
185.2123 5.443405
185.6944 5.034271
186.1765 4.103806
186.6586 3.484940
187.1407 3.311584
187.6228 3.345657
188.1050 3.474442
188.5871 3.677582
189.0692 3.859818
189.5513 3.852921
190.0334 3.677917
190.5155 3.810684
190.9977 4.744400
191.4798 5.811722
191.9619 6.184113
192.4440 5.684082
192.9261 4.930618
193.4082 4.304047
193.8904 3.833588
194.3725 3.803864
194.8546 4.732986
195.3367 6.090668
195.8188 6.728455
196.3009 6.255005
196.7831 5.728836
197.2652 6.147751
197.7473 7.164520
198.2294 7.885162
198.7115 7.635574
199.1936 6.660828
199.6758 6.018082
200.1579 5.865356
200.6400 5.884171
201.1221 5.923569
201.6042 5.976761
202.0863 6.040482
202.5685 6.137772
203.0506 6.260651
203.5327 6.284554
204.0148 5.971519
204.4969 5.818298
204.9790 6.180229
205.4612 6.872292
205.9433 7.447296
206.4254 7.491554
206.9075 6.968002
207.3896 6.632332
207.8717 6.640976
208.3539 6.707176
208.8360 6.710899
209.3181 6.691620
209.8002 6.790398
210.2823 7.176857
210.7644 7.920097
211.2466 8.319580
211.7287 8.076218
212.2108 7.805023
212.6929 7.775269
213.1750 7.950363
213.6571 8.116653
214.1393 8.064560
214.6214 7.739021
215.1035 7.590042
215.5856 7.719048
216.0677 7.889145
216.5498 7.933189
217.0320 7.880165
217.5141 7.905548
217.9962 8.201797
218.4783 8.818466
218.9604 9.181190
219.4425 9.165726
219.9247 9.037865
220.4068 8.885925
220.8889 8.735466
221.3710 8.668213
221.8531 8.799187
222.3352 9.141205
222.8174 9.235985
223.2995 8.913536
223.7816 8.492432
224.2637 8.203506
224.7458 8.050262
225.2279 7.900467
225.7100 7.632774
226.1922 7.267471
226.6743 6.962196
227.1564 6.774132
227.6385 6.646851
228.1206 6.531342
228.6027 6.436234
229.0849 6.424370
229.5670 6.562050
230.0491 6.791687
230.5312 6.968285
231.0133 7.197502
231.4954 7.311539
231.9776 6.969330
232.4597 6.074951
232.9418 5.359474
233.4239 5.511871
233.9060 6.107910
234.3881 6.513931
234.8703 6.492844
235.3524 6.284492
235.8345 6.177902
236.3166 6.164230
236.7987 6.296638
237.2808 6.934593
237.7630 7.625969
238.2451 7.779564
238.7272 7.021629
239.2093 5.923347
239.6914 5.456757
240.1735 5.831985
240.6557 6.185738
241.1378 6.094757
241.6199 5.847565
242.1020 5.721329
242.5841 5.826241
243.0662 6.042076
243.5484 6.170914
244.0305 6.198685
244.5126 6.159744
244.9947 6.057938
245.4768 5.910622
245.9589 5.713631
246.4410 5.462296
246.9232 5.201149
247.4053 5.014946
247.8874 4.960480
248.3695 4.840927
248.8516 4.591454
249.3337 4.300201
249.8159 3.992630
250.2980 3.679619
250.7801 3.428215
251.2622 3.362671
251.7443 3.555923
252.2264 3.790688
252.7086 4.244446
253.1907 4.613045
253.6728 4.613068
254.1549 4.194313
254.6370 3.601875
255.1191 3.228630
255.6013 3.256828
256.0834 3.118553
256.5655 2.641403
257.0476 2.134033
257.5297 1.741859
258.0118 1.521843
258.4940 1.507011
258.9761 1.762276
259.4582 2.404732
259.9403 3.038467
260.4224 3.958130
260.9045 4.659706
261.3867 4.623085
261.8688 3.915863
262.3509 3.189644
262.8330 3.247757
263.3151 4.453423
263.7972 5.120544
264.2794 4.829735
264.7615 4.455925
265.2436 4.492508
265.7257 4.941048
266.2078 5.497299
266.6899 5.852402
267.1721 5.942474
267.6542 6.252319
268.1363 6.881866
268.6184 7.600563
269.1005 8.352325
269.5826 9.094894
270.0648 9.726341
270.5469 10.13474
271.0290 10.30648
271.5111 10.82916
271.9932 11.85663
272.4753 12.97356
272.9575 13.90750
273.4396 14.76933
273.9217 15.88313
274.4038 17.50561
274.8859 19.58698
275.3680 21.58895
275.8501 23.55085
276.3322 25.42556
276.8144 27.02429
277.2965 28.52827
277.7786 30.38065
278.2607 32.88345
278.7428 35.82730
279.2249 38.31728
279.7071 40.20869
280.1892 41.93831
280.6713 43.88373
281.1534 45.73115
281.6355 46.87063
282.1176 47.01935
282.5998 46.37400
283.0819 45.36150
283.5640 44.03506
284.0461 42.29723
284.5282 39.88788
285.0103 37.13935
285.4925 34.56290
285.9746 32.33883
286.4567 30.21703
286.9388 27.66175
287.4209 24.42191
287.9030 21.66558
288.3852 19.80033
288.8673 18.44041
289.3494 17.17989
289.8315 15.92784
290.3136 14.70666
290.7957 13.52776
291.2779 12.39686
291.7600 11.34351
292.2421 10.27013
292.7242 9.329269
293.2063 8.715874
293.6884 8.447891
294.1706 8.322601
294.6527 8.193695
295.1348 8.057648
295.6169 7.836075
296.0990 7.427505
296.5811 7.001816
297.0633 6.688759
297.5454 6.493271
298.0275 6.341301
298.5096 6.187645
298.9917 6.031998
299.4738 5.883369
299.9560 5.780113
300.4381 5.645531
300.9202 5.361679
301.4023 4.979889
301.8844 4.714058
302.3665 4.652016
302.8487 4.811104
303.3308 5.209610
303.8129 5.983650
304.2950 6.748535
304.7771 7.381645
305.2592 7.879967
305.7414 8.209549
306.2235 8.320656
306.7056 8.322487
307.1877 8.420341
307.6698 8.615990
308.1519 8.858597
308.6341 9.141151
309.1162 9.459473
309.5983 9.847755
310.0804 10.34428
310.5625 10.78048
311.0446 10.88438
311.5268 10.65531
312.0089 10.39386
312.4910 10.12453
312.9731 9.868553
313.4552 9.666771
313.9373 9.527550
314.4195 9.376160
314.9016 9.152313
315.3837 8.852196
315.8658 8.486969
316.3479 8.169083
316.8300 7.708618
317.3121 6.779617
317.7943 5.424431
318.2764 4.287018
318.7585 3.857613
319.2406 4.006126
319.7227 3.953766
320.2048 3.624954
320.6870 3.178040
321.1691 2.592590
321.6512 1.933937
322.1333 1.447777
322.6154 1.293945
323.0975 1.336014
323.5797 1.232704
324.0618 0.9506000
324.5439 0.6302190
325.0260 0.2182540
325.5081 0.1849900
325.9902 0.3379520
326.4724 0.1187970
326.9545 0.1988910
327.4366 0.1510700
327.9187 0.3187710
328.4008 0.7312930
328.8829 1.093826
329.3651 1.309494
329.8472 1.138260
330.3293 0.5384670
330.8114 2.1289999E-03
331.2935 0.1005550
331.7756 0.9085920
332.2578 1.288216
332.7399 0.8784410
333.2220 0.2769010
333.7041 0.1141280
334.1862 0.2830050
334.6683 0.3834990
335.1505 0.5172350
335.6326 0.6721190
336.1147 0.7662510
336.5968 0.9556350
337.0789 0.9679790
337.5610 0.4408040
338.0432 0.4096830
338.5253 0.9642410
339.0074 0.8778460
339.4895 0.3643490
339.9716 0.1112440
340.4537 0.4219210
340.9359 0.5253600
341.4180 5.4214001E-02
341.9001 0.6591800
342.3822 1.210800
342.8643 1.484680
343.3464 1.546135
343.8286 1.444145
344.3107 1.042526
344.7928 0.9081040
345.2749 1.222549
345.7570 1.684784
346.2391 2.119385
346.7213 2.506546
347.2034 2.822678
347.6855 3.001976
348.1676 3.006386
348.6497 3.125389
349.1318 3.676239
349.6140 4.036446
350.0961 3.879181
350.5782 3.324387
351.0603 2.616821
351.5424 1.863930
352.0245 1.119499
352.5067 0.6321260
352.9888 0.6069030
353.4709 0.6328740
353.9530 0.6732330
354.4351 0.6848300
354.9172 0.6256260
355.3994 0.4865110
355.8815 0.3250200
356.3636 0.2212370
356.8457 0.1121670
357.3278 0.2120440
357.8099 0.7598270
358.2920 1.320099
358.7741 1.584625
359.2563 1.540207
359.7384 1.352242
360.2205 1.155655
360.7026 0.9314880
361.1847 0.9190440
361.6668 1.322342
362.1490 1.698730
362.6311 1.918922
363.1132 2.001663
363.5953 1.996124
364.0774 1.927696
364.5595 1.814316
365.0417 1.704803
365.5238 1.362885
366.0059 1.361656
366.4880 2.102417
366.9701 3.029655
367.4522 3.569122
367.9344 3.551125
368.4165 3.270424
368.8986 3.172386
369.3807 3.316154
369.8628 3.496521
370.3449 3.719994
370.8271 3.971214
371.3092 4.237480
371.7913 4.523781
372.2734 4.800896
372.7555 5.017365
373.2376 5.199768
373.7198 5.528847
374.2019 6.322464
374.6840 6.906601
375.1661 6.982117
375.6482 6.737061
376.1303 6.463821
376.6125 6.306122
377.0946 6.185616
377.5767 5.917313
378.0588 5.457756
378.5409 4.974335
379.0230 4.455246
379.5052 3.966461
379.9873 3.560944
380.4694 3.248047
380.9515 2.999611
381.4336 2.797005
381.9157 2.639404
382.3979 2.509666
382.8800 2.383789
383.3621 2.310516
383.8442 2.365509
384.3263 2.520508
384.8084 2.627724
385.2906 2.589417
385.7727 2.442604
386.2548 2.274178
386.7369 2.085037
387.2190 1.877678
387.7011 1.657639
388.1833 1.451553
388.6654 1.257401
389.1475 1.031197
389.6296 0.8313220
390.1117 0.7756270
390.5938 0.8756030
391.0760 0.9789810
391.5581 1.040794
392.0402 1.037613
392.5223 0.9558790
393.0044 0.8001170
393.4865 0.5729140
393.9687 0.1292500
394.4508 0.3381730
394.9329 0.4368900
395.4150 7.8902997E-02
395.8971 0.2586440
396.3792 5.9517000E-02
396.8614 0.5790330
397.3435 0.7948230
397.8256 0.2405930
398.3077 0.4305340
398.7898 0.8588330
399.2719 1.084534
399.7540 1.200684
400.2361 1.241135
400.7183 1.225502
401.2004 1.214355
401.6825 1.269791
402.1646 1.223274
402.6467 1.011375
403.1288 0.6979830
403.6110 0.2855830
404.0931 0.2041170
404.5752 0.5853730
405.0573 0.6096120
405.5394 0.1689070
406.0215 0.1011810
406.5037 0.1319730
406.9858 8.2572997E-02
407.4679 4.6280000E-02
407.9500 0.1933060
408.4321 0.2099610
408.9142 1.6829999E-02
409.3964 0.3956070
409.8785 0.4997100
410.3606 7.5966001E-02
410.8427 0.4054950
411.3248 0.2377400
411.8069 0.1083680
412.2891 0.3340000
412.7712 0.3594820
413.2533 0.2964710
413.7354 0.2921980
414.2175 0.3658370
414.6996 0.4189990
415.1818 0.3892970
415.6639 0.4060520
416.1460 0.6034550
416.6281 0.8901370
417.1102 1.035301
417.5923 0.8439790
418.0745 0.4489520
418.5566 0.3206560
419.0387 0.5764160
419.5208 0.8463060
420.0029 1.130867
420.4850 1.316322
420.9672 1.230904
421.4493 0.8260190
421.9314 0.3850330
422.4135 0.2133100
422.8956 0.2984010
423.3777 0.3608930
423.8599 0.3077700
424.3420 0.3002400
424.8241 0.5477680
425.3062 0.9614790
425.7883 1.212616
426.2704 1.073456
426.7526 0.7338870
427.2347 0.3961330
427.7168 4.6248998E-02
428.1989 3.7246998E-02
428.6810 0.5157700
429.1631 1.319412
429.6453 1.462471
430.1274 0.5379100
430.6095 0.1283950
431.0916 0.4737090
431.5737 1.744202
432.0558 2.439499
432.5380 2.213966
433.0201 1.623886
433.5022 1.249062
433.9843 1.110489
434.4664 1.139511
434.9485 1.610802
435.4307 2.013351
435.9128 1.900497
436.3949 1.397980
436.8770 0.9806520
437.3591 0.9334720
437.8412 1.160683
438.3234 1.300758
438.8055 1.361954
439.2876 1.321785
439.7697 0.8995510
440.2518 0.5338290
440.7339 0.8091200
441.2160 1.751930
441.6982 2.715843
442.1803 2.904236
442.6624 2.164131
443.1445 1.772675
443.6266 1.989067
444.1087 2.293472
444.5909 2.669044
445.0730 2.999344
445.5551 3.084839
446.0372 2.795868
446.5193 2.337631
447.0014 2.190849
447.4836 2.477669
447.9657 2.714455
448.4478 2.666641
448.9299 2.650200
449.4120 2.947266
449.8941 3.531197
450.3763 4.048935
450.8584 4.128082
451.3405 3.896446
451.8226 3.938553
452.3047 4.382729
452.7868 4.766357
453.2690 4.658600
453.7511 4.373100
454.2332 4.371582
454.7153 4.846649
455.1974 5.383820
455.6795 5.599121
456.1617 5.585526
456.6438 5.781380
457.1259 6.375168
457.6080 7.096573
458.0901 7.591225
458.5722 7.865654
459.0544 8.129585
459.5365 8.576942
460.0186 8.915146
460.5007 8.750130
460.9828 8.170235
461.4649 7.722054
461.9471 7.748505
462.4292 8.120918
462.9113 8.309677
463.3934 8.219246
463.8755 8.133827
464.3576 8.028572
464.8398 7.953362
465.3219 7.926781
465.8040 7.963890
466.2861 8.119446
466.7682 8.461670
467.2503 9.001274
467.7325 9.643295
468.2146 10.73456
468.6967 11.50627
469.1788 11.65385
469.6609 11.41804
470.1430 11.13503
470.6252 10.95184
471.1073 10.75546
471.5894 10.34682
472.0715 9.703026
472.5536 8.973549
473.0357 8.015045
473.5179 7.116104
474.0000 6.448288
474.4821 5.996048
474.9642 5.640785
475.4463 5.344795
475.9284 5.087959
476.4106 4.789757
476.8927 4.431419
477.3748 4.240173
477.8569 4.447075
478.3390 4.810471
478.8211 4.955513
479.3033 4.876961
479.7854 4.684761
480.2675 4.194183
480.7496 3.643059
481.2317 3.510826
481.7138 3.944695
482.1959 4.520103
482.6780 4.865906
483.1602 4.980400
483.6423 5.185562
484.1244 5.578369
484.6065 5.946922
485.0886 6.171616
485.5707 6.331802
486.0529 6.578590
486.5350 6.986496
487.0171 7.476906
487.4992 7.942062
487.9813 8.319321
488.4634 8.836357
488.9456 9.606712
489.4277 10.46074
489.9098 11.23361
490.3919 12.02217
490.8740 13.05774
491.3561 14.49236
491.8383 16.22008
492.3204 17.96271
492.8025 19.72069
493.2846 21.48724
493.7667 23.33163
494.2488 25.11579
494.7310 26.83385
495.2131 28.44408
495.6952 29.74011
496.1773 30.65628
496.6594 31.13308
497.1415 30.94798
497.6237 30.03307
498.1058 28.74100
498.5879 27.24575
499.0700 25.47001
499.5521 23.23541
500.0342 20.26357
500.5164 17.47654
500.9985 15.39575
501.4806 13.77418
501.9627 12.06283
502.4448 10.15054
502.9269 8.513298
503.4091 7.678131
503.8912 7.675919
504.3733 7.433640
504.8554 6.811485
505.3375 6.136238
505.8196 5.535645
506.3018 4.952477
506.7839 4.224052
507.2660 3.306870
507.7481 2.454124
508.2302 2.098015
508.7123 2.410797
509.1945 2.595551
509.6766 2.686951
510.1587 2.613663
510.6408 2.174957
511.1229 1.572701
511.6050 1.191635
512.0872 1.250641
512.5693 1.530479
513.0514 1.643753
513.5335 1.572044
514.0156 1.473091
514.4977 1.363487
514.9799 1.252556
515.4620 1.151443
515.9441 1.057945
516.4262 0.9581150
516.9083 0.8402790
517.3904 0.7152940
517.8726 0.5983200
518.3547 0.4885860
518.8368 0.3606110
519.3189 0.1736370
519.8010 3.9220001E-03
520.2831 3.3585001E-02
520.7653 0.3983150
521.2474 0.6101840
521.7295 0.3555370
522.2116 7.7660002E-02
522.6937 0.2367480
523.1758 0.7928090
523.6580 1.364922
524.1401 1.684708
524.6222 1.782326
525.1043 1.809029
525.5864 1.658615
526.0685 1.591354
526.5507 1.730659
527.0328 1.887810
527.5149 1.939743
527.9970 1.855316
528.4791 1.625130
528.9612 1.156960
529.4434 0.5229110
529.9255 0.1828920
530.4076 0.2402650
530.8897 0.3557360
531.3718 0.3564300
531.8539 0.3557130
532.3361 0.5418170
532.8182 0.9925080
533.3003 1.273376
533.7824 0.8832550
534.2645 0.1635360
534.7466 4.9254999E-02
535.2288 0.3930280
535.7109 0.7561340
536.1930 0.4077530
536.6751 0.5052110
537.1572 1.025078
537.6393 1.129921
538.1215 0.9138570
538.6036 6.3446000E-02
539.0857 0.9399030
539.5678 1.490189
540.0499 1.469475
540.5320 1.155731
541.0142 0.8178410
541.4963 0.4545140
541.9784 9.8755002E-02
542.4604 0.4019620
542.9426 0.6978610
543.4247 0.6304630
543.9068 0.3660580
544.3889 9.0248004E-02
544.8710 0.1476290
545.3531 0.4265290
545.8353 0.8751830
546.3174 1.472351
546.7995 1.971390
547.2816 2.405663
547.7637 2.643265
548.2458 2.369461
548.7280 1.891441
549.2101 1.721977
549.6922 2.035103
550.1743 2.475471
550.6564 2.849190
551.1385 3.186073
551.6207 3.598480
552.1028 4.115089
552.5849 4.511383
553.0670 4.543594
553.5491 4.209488
554.0313 4.004318
554.5134 4.149872
554.9955 4.141060
555.4776 3.692413
555.9597 3.078758
556.4418 2.605789
556.9240 2.365463
557.4061 2.333633
557.8882 2.554138
558.3703 3.046013
558.8524 3.211342
559.3345 2.824333
559.8167 2.420418
560.2988 2.121689
560.7809 1.933250
561.2630 1.882072
561.7451 1.984550
562.2272 2.121040
562.7094 2.226730
563.1915 2.284637
563.6736 2.195366
564.1557 1.907883
564.6378 1.680450
565.1199 1.748680
565.6021 2.031830
566.0842 2.154587
566.5663 2.054718
567.0484 1.886879
567.5305 1.622253
568.0126 1.358200
568.4948 1.244957
568.9769 1.293289
569.4590 1.344559
569.9411 1.223610
570.4232 0.9536740
570.9053 1.006294
571.3875 1.906151
571.8696 2.415451
572.3517 2.027733
572.8338 1.382736
573.3159 1.066818
573.7980 1.168938
574.2802 1.402596
574.7623 1.613571
575.2444 1.759666
575.7265 1.575943
576.2086 0.9387050
576.6907 0.5061800
577.1729 0.7532500
577.6550 1.299110
578.1371 1.516632
578.6192 1.330589
579.1013 1.119774
579.5834 0.9882200
580.0656 0.9260710
580.5477 0.9594570
581.0298 1.070938
581.5119 1.162376
581.9940 1.167488
582.4761 1.111053
582.9583 1.076248
583.4404 1.028976
583.9225 1.057693
584.4046 1.274658
584.8867 1.469688
585.3688 1.470779
585.8510 1.319832
586.3331 1.184059
586.8152 1.174828
587.2973 1.230240
587.7794 1.196404
588.2615 1.049927
588.7437 0.9897310
589.2258 1.089584
589.7079 1.264946
590.1900 1.449669
590.6721 1.642593
591.1542 1.821136
591.6364 2.104179
592.1185 2.260750
592.6006 1.908661
593.0827 1.264824
593.5648 1.027153
594.0469 1.479004
594.5291 2.051254
595.0112 1.940552
595.4933 0.9343110
595.9754 0.2872160
596.4575 0.1724470
596.9396 0.2340390
597.4218 0.4928890
597.9039 0.8005140
598.3860 0.9577870
598.8681 0.8985670
599.3502 0.7394330
599.8323 0.5927200
600.3145 0.4358140
600.7966 0.3462300
601.2787 0.3954850
601.7608 0.4492950
602.2429 0.3737640
602.7250 0.2527620
