#Shining_header
#data type:raman_database
#CAS:Not entered
#Material scientific name:Laurite
#Manufacturer:Not entered
#Laser model:Not entered
#Spectrometer model:Not entered
#Testing unit:Not entered
#Test time:Not entered
#Other experimental details:Not entered
#Shining_data
177.9024 0.0000000E+00
178.3845 0.5275990
178.8666 0.8437230
179.3488 0.6549640
179.8309 6.0989000E-02
180.3130 5.3295001E-02
180.7951 0.6263620
181.2772 1.086094
181.7593 1.264160
182.2415 1.281307
182.7236 1.270264
183.2057 1.259693
183.6878 1.218067
184.1699 1.084827
184.6520 0.7420310
185.1342 0.5817990
185.6163 0.6689490
186.0984 0.8524550
186.5805 1.088642
187.0626 1.341888
187.5447 1.528385
188.0269 1.512867
188.5090 1.199055
188.9911 1.015663
189.4732 1.217537
189.9553 1.573452
190.4374 1.701588
190.9196 1.440269
191.4017 1.020008
191.8838 0.7421040
192.3659 0.5939710
192.8480 0.5664370
193.3301 0.7755200
193.8123 1.131721
194.2944 1.308121
194.7765 1.087650
195.2586 0.7980000
195.7407 0.8305630
196.2228 1.196163
196.7050 1.553017
197.1871 1.605518
197.6692 1.363926
198.1513 1.225361
198.6334 1.370964
199.1155 1.559875
199.5977 1.595955
200.0798 1.477955
200.5619 1.385311
201.0440 1.538902
201.5261 1.994244
202.0082 2.330856
202.4904 2.458210
202.9725 2.477337
203.4546 2.383644
203.9367 2.197945
204.4188 2.008480
204.9009 1.940830
205.3831 2.056850
205.8652 2.107208
206.3473 2.059177
206.8294 1.976078
207.3115 1.858055
207.7936 1.731323
208.2758 1.666656
208.7579 1.749458
209.2400 2.026878
209.7221 2.235344
210.2042 2.283051
210.6863 2.303417
211.1685 2.358711
211.6506 2.449238
212.1327 2.636234
212.6148 2.936874
213.0969 3.205521
213.5790 3.461212
214.0612 3.659912
214.5433 3.752010
215.0254 3.867760
215.5075 4.046261
215.9896 4.238945
216.4717 4.319496
216.9539 4.168873
217.4360 4.033405
217.9181 3.909084
218.4002 3.827721
218.8823 3.851124
219.3644 4.000286
219.8466 4.147419
220.3287 4.090370
220.8108 3.779427
221.2929 3.554619
221.7750 3.482143
222.2571 3.511608
222.7393 3.602943
223.2214 3.757259
223.7035 3.916592
224.1856 4.023102
224.6677 4.083294
225.1498 4.058022
225.6320 3.829647
226.1141 3.535225
226.5962 3.416157
227.0783 3.542698
227.5604 3.754280
228.0425 3.930199
228.5247 4.069530
229.0068 4.141251
229.4889 4.165920
229.9710 4.110954
230.4531 3.863472
230.9352 3.322506
231.4174 2.779194
231.8995 2.450474
232.3816 2.291492
232.8637 2.200272
233.3458 2.184624
233.8279 2.204483
234.3101 2.105179
234.7922 1.784237
235.2743 1.516174
235.7564 1.595913
236.2385 1.832344
236.7206 1.942875
237.2028 1.721218
237.6849 1.242161
238.1670 0.8216210
238.6491 0.4660000
239.1312 0.1976620
239.6133 4.7591999E-02
240.0955 2.6131000E-02
240.5776 9.6592002E-02
241.0597 0.2099080
241.5418 0.3528370
242.0239 0.4608610
242.5060 0.5397000
242.9882 0.5694850
243.4703 0.5314140
243.9524 0.4479370
244.4345 0.3355830
244.9166 0.1868360
245.3987 3.5140999E-02
245.8809 5.7098001E-02
246.3630 0.4992680
246.8451 0.7953680
247.3272 0.7152940
247.8093 0.4621510
248.2914 0.3163800
248.7736 0.4395030
249.2557 0.7429810
249.7378 0.8637580
250.2199 0.5904660
250.7020 0.3838350
251.1841 0.3210410
251.6663 0.3502770
252.1484 0.4259190
252.6305 0.5274470
253.1126 0.6362880
253.5947 0.6932720
254.0768 0.7543450
254.5590 0.6743580
255.0411 0.3156930
255.5232 0.1349980
256.0053 0.4904750
256.4874 0.6710400
256.9695 0.7056200
257.4517 0.6620480
257.9338 0.3207130
258.4159 0.1710850
258.8980 0.3464050
259.3801 0.6601790
259.8622 0.9595600
260.3444 1.187275
260.8265 1.300808
261.3086 1.204525
261.7907 0.5441130
262.2728 0.2518730
262.7549 0.6270560
263.2371 1.234558
263.7192 1.654026
264.2013 1.772713
264.6834 1.725922
265.1655 1.689240
265.6476 1.592358
266.1298 1.717968
266.6119 2.441998
267.0940 3.188606
267.5761 3.314819
268.0582 2.715145
268.5403 1.929516
269.0225 1.583202
269.5046 1.796165
269.9867 2.003284
270.4688 2.288002
270.9509 2.503620
271.4330 2.452446
271.9152 2.128147
272.3973 1.800373
272.8794 1.722477
273.3615 1.922783
273.8436 2.158478
274.3257 2.536922
274.8079 2.873531
275.2900 2.971863
275.7721 2.838432
276.2542 2.701183
276.7363 2.755268
277.2184 2.967884
277.7006 3.039570
278.1827 2.828735
278.6648 2.587906
279.1469 2.478489
279.6290 2.496700
280.1111 2.595055
280.5933 2.784966
281.0754 3.023010
281.5575 3.169418
282.0396 3.198059
282.5217 3.169342
283.0038 3.124195
283.4860 3.056137
283.9681 2.909153
284.4502 2.585335
284.9323 2.234146
285.4144 2.172298
285.8965 2.520546
286.3787 2.850212
286.8608 2.836342
287.3429 2.588528
287.8250 2.550003
288.3071 2.990009
288.7892 3.525024
289.2714 3.559307
289.7535 3.042191
290.2356 2.536884
290.7177 2.316425
291.1998 2.306824
291.6819 2.284592
292.1641 2.147629
292.6462 2.099411
293.1283 2.564594
293.6104 3.463604
294.0925 3.959503
294.5746 3.403561
295.0568 2.269569
295.5389 1.503605
296.0210 1.262531
296.5031 1.232121
296.9852 1.237038
297.4673 1.254681
297.9495 1.206272
298.4316 1.011177
298.9137 0.7531390
299.3958 0.5482410
299.8779 0.4001920
300.3600 0.3172610
300.8422 0.3797990
301.3243 0.5090640
301.8064 0.5557370
302.2885 0.4299930
302.7706 0.2707370
303.2527 0.2622760
303.7349 0.4073750
304.2170 0.4672200
304.6991 0.2482190
305.1812 2.9362001E-02
305.6633 5.3833000E-02
306.1454 0.3001330
306.6276 0.6477890
307.1097 0.5550840
307.5918 6.7215003E-02
308.0739 0.1709590
308.5560 0.2245790
309.0381 0.7825930
309.5203 0.9324680
310.0024 0.6205980
310.4845 0.2919350
310.9666 0.2398150
311.4487 0.4295580
311.9308 0.7016410
312.4130 1.113598
312.8951 1.505516
313.3772 1.667675
313.8593 1.622623
314.3414 1.637321
314.8235 1.871784
315.3057 2.264793
315.7878 2.659904
316.2699 3.030235
316.7520 3.435596
317.2341 3.903336
317.7162 4.429134
318.1984 5.024197
318.6805 5.720581
319.1626 6.473690
319.6447 7.208466
320.1268 7.916164
320.6089 8.648121
321.0911 9.415417
321.5732 10.23803
322.0553 11.15668
322.5374 12.21814
323.0195 13.32257
323.5016 14.36266
323.9838 15.34423
324.4659 16.31265
324.9480 17.26721
325.4301 18.22706
325.9122 19.18365
326.3943 20.12999
326.8765 21.15327
327.3586 22.31762
327.8407 23.61855
328.3228 24.98252
328.8049 26.31168
329.2870 27.82993
329.7692 29.78654
330.2513 32.14137
330.7334 34.56178
331.2155 36.86938
331.6976 39.12191
332.1797 41.41801
332.6619 43.72047
333.1440 46.20079
333.6261 49.07907
334.1082 52.24033
334.5903 55.49459
335.0724 58.72537
335.5546 62.02225
336.0367 65.45894
336.5188 69.01089
337.0009 72.82858
337.4830 77.13544
337.9651 81.74414
338.4473 86.24202
338.9294 90.44361
339.4115 94.74968
339.8936 99.52279
340.3757 104.7228
340.8578 109.8639
341.3400 114.6804
341.8221 119.4927
342.3042 124.7938
342.7863 130.6566
343.2684 136.6473
343.7505 142.6134
344.2327 148.5528
344.7148 154.4145
345.1969 160.1264
345.6790 165.9213
346.1611 172.2415
346.6432 178.9892
347.1254 185.5036
347.6075 191.3667
348.0896 197.0151
348.5717 202.8513
349.0538 208.9337
349.5359 215.2175
350.0181 221.8429
350.5002 228.6879
350.9823 235.2077
351.4644 241.2964
351.9465 247.0810
352.4286 252.8850
352.9108 258.5509
353.3929 263.4769
353.8750 267.4111
354.3571 270.3044
354.8392 272.1788
355.3214 273.2921
355.8035 273.1165
356.2856 271.5446
356.7677 268.5392
357.2498 264.1018
357.7319 258.2544
358.2141 250.7904
358.6962 240.9595
359.1783 228.4444
359.6604 215.6415
360.1425 202.5085
360.6246 189.3430
361.1068 176.3817
361.5889 163.5761
362.0710 151.1768
362.5531 139.2604
363.0352 127.8691
363.5173 117.7413
363.9995 109.2049
364.4816 101.4117
364.9637 94.12814
365.4458 87.31378
365.9279 80.83447
366.4100 74.58666
366.8922 68.69601
367.3743 63.74823
367.8564 60.26389
368.3385 56.89528
368.8206 53.32143
369.3027 49.84152
369.7849 46.87139
370.2670 44.52555
370.7491 42.50941
371.2312 40.42478
371.7133 38.21981
372.1954 36.14864
372.6776 34.10237
373.1597 32.28074
373.6418 30.81646
374.1239 29.69284
374.6060 28.81204
375.0881 28.11333
375.5703 27.59195
376.0524 26.97034
376.5345 26.09744
377.0166 25.29576
377.4987 24.69036
377.9808 24.18512
378.4630 23.63022
378.9451 22.95638
379.4272 22.21745
379.9093 21.53550
380.3914 20.87394
380.8735 20.34006
381.3557 20.04823
381.8378 19.79264
382.3199 19.38953
382.8020 18.83035
383.2841 18.26956
383.7662 17.88661
384.2484 17.70419
384.7305 17.52797
385.2126 17.25639
385.6947 17.09180
386.1768 17.14271
386.6589 17.34992
387.1411 17.62214
387.6232 17.94200
388.1053 18.22967
388.5874 18.15714
389.0695 17.46512
389.5516 16.89998
390.0338 16.66217
390.5159 16.59005
390.9980 16.57420
391.4801 16.58111
391.9622 16.56086
392.4443 16.40873
392.9265 16.09764
393.4086 15.92632
393.8907 16.05799
394.3728 16.22499
394.8549 16.32568
395.3370 16.34446
395.8192 16.26079
396.3013 15.98060
396.7834 15.55203
397.2655 15.18552
397.7476 14.96669
398.2297 14.72728
398.7119 14.32711
399.1940 13.87023
399.6761 13.48550
400.1582 13.21556
400.6403 13.00392
401.1224 12.82127
401.6046 12.65233
402.0867 12.40617
402.5688 12.00458
403.0509 11.56102
403.5330 11.21423
404.0151 10.97403
404.4973 10.77310
404.9794 10.60400
405.4615 10.44867
405.9436 10.33205
406.4257 10.28314
406.9078 10.05267
407.3900 9.302673
407.8721 8.158581
408.3542 7.295731
408.8363 7.031498
409.3184 6.821831
409.8005 6.312523
410.2827 5.576962
410.7648 4.853432
411.2469 4.214073
411.7290 3.644428
412.2111 3.209229
412.6932 3.014572
413.1754 2.756905
413.6575 2.271458
414.1396 1.759510
414.6217 1.480976
415.1038 1.459295
415.5859 1.443243
416.0681 1.176842
416.5502 0.6317650
417.0323 0.1405320
417.5144 0.3513180
417.9965 0.7321530
418.4786 1.009163
418.9608 1.147825
419.4429 1.029163
419.9250 0.5731560
420.4071 6.1760001E-02
420.8892 0.4341450
421.3713 0.4553590
421.8535 0.3299580
422.3356 0.1112520
422.8177 0.5814190
423.2998 0.8530960
423.7819 0.8929630
424.2640 0.7992520
424.7462 0.6579820
425.2283 0.4667640
425.7104 0.3282590
426.1925 0.2643620
426.6746 0.2261200
427.1567 0.2150330
427.6389 0.2173810
428.1210 0.2260890
428.6031 0.2471100
429.0852 0.2372800
429.5673 6.4677998E-02
430.0494 0.3586540
430.5316 0.6408350
431.0137 0.4904520
431.4958 0.2942030
431.9779 0.3251820
432.4600 0.5894010
432.9421 0.8636860
433.4243 0.9814240
433.9064 0.9705810
434.3885 0.9349190
434.8706 0.8507020
435.3527 0.8098910
435.8348 0.9791030
436.3170 1.211439
436.7991 1.234753
437.2812 0.8709180
437.7633 0.4408820
438.2454 0.2312300
438.7275 0.2156890
439.2097 0.2726000
439.6918 0.3973450
440.1739 0.5257510
440.6560 0.5391810
441.1381 0.4273680
441.6202 0.3556580
442.1024 0.4039710
442.5845 0.5019780
443.0666 0.5566580
443.5487 0.5580430
444.0308 0.5858420
444.5129 0.7275240
444.9951 0.9569870
445.4772 1.021868
445.9593 0.7532460
446.4414 0.5386090
446.9235 0.5117840
447.4056 0.6118090
447.8878 0.7645990
448.3699 0.9392280
448.8520 1.094873
449.3341 1.165400
449.8162 1.116528
450.2983 1.079409
450.7805 1.146992
451.2626 1.140001
451.7447 0.9311370
452.2268 0.5658300
452.7089 0.1398450
453.1910 0.3100830
453.6732 0.7123780
454.1553 0.7195240
454.6374 4.3145999E-02
455.1195 0.5605140
455.6016 0.5735280
456.0837 0.3711050
456.5659 0.1652240
457.0480 5.8060000E-03
457.5301 0.1373230
458.0122 0.3259090
458.4943 0.5569270
458.9764 0.6508450
459.4586 0.5567110
459.9407 0.3901860
460.4228 0.1416090
460.9049 0.1172260
461.3870 0.2470000
461.8691 0.1599100
462.3513 8.8520003E-03
462.8334 0.1070770
463.3155 0.1357610
463.7976 0.1357590
464.2797 0.1211910
464.7618 8.0789998E-02
465.2440 5.9429999E-03
465.7261 0.1402550
466.2082 0.2725350
466.6903 0.4716210
467.1724 0.6128980
467.6545 0.4304500
468.1367 6.3538000E-02
468.6188 0.3847160
469.1009 0.1427970
469.5830 0.5197160
470.0651 0.8800930
470.5472 0.7587990
471.0294 0.6075940
471.5115 0.5030480
471.9936 0.4478450
472.4757 0.4572010
472.9578 0.5301900
473.4399 0.6266540
473.9221 0.7082060
474.4042 0.7902620
474.8863 0.7611010
475.3684 0.4445970
475.8505 0.1929320
476.3326 0.1852660
476.8148 0.3311750
477.2969 0.4921720
477.7790 0.6112920
478.2611 0.6731320
478.7432 0.5932600
479.2253 0.2694870
479.7075 9.8908998E-02
480.1896 0.2713660
480.6717 0.4700260
481.1538 0.5161060
481.6359 0.4411540
482.1180 0.4060690
482.6002 0.5557820
483.0823 0.8125020
483.5644 0.9357190
484.0465 0.8868370
484.5286 0.8283290
485.0107 0.8185180
485.4929 0.8432100
485.9750 0.9114590
486.4571 1.046989
486.9392 1.104525
487.4213 0.9050540
487.9034 0.5794070
488.3856 0.4301110
488.8677 0.5129810
489.3498 0.7052840
489.8319 0.9495320
490.3140 1.227562
490.7961 1.369701
491.2783 1.285696
491.7604 1.163881
492.2425 1.026400
492.7246 0.9226210
493.2067 0.9868560
493.6888 1.266449
494.1710 1.571959
494.6531 1.581108
495.1352 1.106384
495.6173 0.9369340
496.0994 1.351261
496.5815 1.754528
497.0637 1.851366
497.5458 1.710030
498.0279 1.525858
498.5100 1.407543
498.9921 1.318554
499.4742 1.140949
499.9564 0.7870460
500.4385 0.5710580
500.9206 0.6485060
501.4027 0.7863960
501.8848 0.8428480
502.3669 0.8212410
502.8491 0.8144950
503.3312 0.9135210
503.8133 1.067524
504.2954 1.103987
504.7775 0.9783760
505.2596 0.9527110
505.7418 1.246887
506.2239 1.657717
506.7060 1.887157
507.1881 1.885658
507.6702 1.847710
508.1523 1.890251
508.6345 1.952967
509.1166 1.926649
509.5987 1.794668
510.0808 1.624580
510.5629 1.450163
511.0450 1.256163
511.5272 1.102730
512.0093 0.9658390
512.4914 0.9887200
512.9735 1.211859
513.4556 1.543520
513.9377 1.965338
514.4199 2.432810
514.9020 2.729633
515.3841 2.530041
515.8662 1.722244
516.3483 1.167095
516.8304 0.9904790
517.3126 0.9773670
517.7947 1.198889
518.2768 1.519159
518.7589 1.750376
519.2410 1.807806
519.7231 1.748241
520.2053 1.624681
520.6874 1.430956
521.1695 1.337502
521.6516 1.468792
522.1337 1.577030
522.6158 1.400822
523.0980 1.065956
523.5801 0.9367310
524.0622 1.258045
524.5443 1.721502
525.0264 2.032150
525.5085 2.192839
525.9907 2.232071
526.4728 2.158075
526.9549 2.037022
527.4370 1.929352
527.9191 1.814699
528.4012 1.654377
528.8834 1.315559
529.3655 1.038616
529.8476 1.011267
530.3297 1.193693
530.8118 1.477598
531.2939 1.818214
531.7761 2.133303
532.2582 2.193838
532.7403 1.751051
533.2224 1.497534
533.7045 1.632931
534.1866 1.778910
534.6688 1.626516
535.1509 1.272051
535.6330 1.071079
536.1151 1.298809
536.5972 1.775557
537.0793 2.024391
537.5615 2.013393
538.0436 1.922150
538.5257 1.647854
539.0078 1.425833
539.4899 1.532013
539.9720 1.952328
540.4542 2.288445
540.9363 2.239143
541.4184 2.040272
541.9005 2.082743
542.3826 2.362221
542.8647 2.513187
543.3469 2.285189
543.8290 1.869823
544.3111 1.795967
544.7932 2.272192
545.2753 2.543982
545.7574 2.330139
546.2396 1.992540
546.7217 1.833735
547.2038 1.863655
547.6859 1.953964
548.1680 2.021429
548.6501 2.059120
549.1323 2.028860
549.6144 1.811769
550.0965 1.738251
550.5786 2.025934
551.0607 2.313627
551.5428 2.263359
552.0250 1.914217
552.5071 1.634674
552.9892 1.748690
553.4713 2.109854
553.9534 2.270555
554.4355 2.178305
554.9177 2.138338
555.3998 2.326536
555.8819 2.588322
556.3640 2.716778
556.8461 2.698107
557.3282 2.636190
557.8104 2.572739
558.2925 2.483526
558.7746 2.292976
559.2567 2.023031
559.7388 1.871307
560.2209 1.980835
560.7031 2.249922
561.1852 2.354834
561.6673 2.074230
562.1494 1.939417
562.6315 2.077438
563.1136 2.268059
563.5958 2.373888
564.0779 2.383780
564.5600 2.335472
565.0421 2.239202
565.5242 2.114300
566.0063 2.037903
566.4885 2.019005
566.9706 2.029799
567.4527 2.160830
567.9348 2.241014
568.4169 2.091354
568.8990 1.744236
569.3812 1.462654
569.8633 1.425945
570.3454 1.526548
570.8275 1.646101
571.3096 1.762732
571.7917 1.696146
572.2739 1.279902
572.7560 0.7717720
573.2381 0.6606770
573.7202 1.045631
574.2023 1.398298
574.6844 1.752443
575.1666 1.993391
575.6487 1.996668
576.1308 1.821154
576.6129 1.597422
577.0950 1.386551
577.5771 1.230701
578.0593 1.253410
578.5414 1.589655
579.0235 1.774992
579.5056 1.589918
579.9877 1.390900
580.4698 1.364594
580.9520 1.452707
581.4341 1.486961
581.9162 1.363001
582.3983 1.218410
582.8804 1.298454
583.3625 1.576702
583.8447 1.693027
584.3268 1.514614
584.8089 1.261797
585.2910 1.131979
585.7731 1.114885
586.2552 1.168554
586.7374 1.435223
587.2195 1.625385
587.7016 1.495447
588.1837 1.217667
588.6658 1.112843
589.1479 1.270088
589.6301 1.490307
590.1122 1.517960
590.5943 1.323004
591.0764 1.222239
591.5585 1.241652
592.0406 1.337379
592.5228 1.574858
593.0049 1.840513
593.4870 2.002390
593.9691 2.027742
594.4512 1.973749
594.9333 1.919703
595.4155 1.846060
595.8976 1.662796
596.3797 1.315189
596.8618 1.035786
597.3439 0.9636380
597.8260 1.055855
598.3082 1.196877
598.7903 1.431534
599.2724 1.601789
599.7545 1.663155
600.2366 1.631559
600.7188 1.473593
601.2009 1.230364
601.6830 1.015530
602.1651 0.9207100
602.6472 0.9337540
603.1293 1.006374
603.6115 1.178429
604.0936 1.338829
604.5757 1.568916
605.0578 1.707909
605.5399 1.605421
606.0220 1.321140
606.5042 1.045019
606.9863 0.8692720
607.4684 0.7859040
607.9505 0.7975770
608.4326 0.9067960
608.9147 1.070545
609.3969 1.329081
609.8790 1.497595
610.3611 1.346210
610.8432 0.9111330
611.3253 0.6688100
611.8074 0.8033050
612.2896 1.001896
612.7717 1.179558
613.2538 1.287125
613.7359 1.210688
614.2180 0.9294780
614.7001 0.6027510
615.1823 0.4021910
615.6644 0.3266050
616.1465 0.4158340
616.6286 0.9211580
617.1107 1.238314
617.5928 1.066862
618.0750 0.7293430
618.5571 0.5458970
619.0392 0.5785560
619.5213 0.7027510
620.0034 0.9378780
620.4855 1.170162
620.9677 1.064537
621.4498 0.5945090
621.9319 0.2266250
622.4140 0.2233980
622.8961 0.4260980
623.3782 0.4937860
623.8604 0.3722360
624.3425 0.3058780
624.8246 0.3640690
625.3067 0.4484210
625.7888 0.5384540
626.2709 0.5963990
626.7531 0.5143380
627.2352 0.2343810
627.7173 7.1083002E-02
628.1994 3.8904000E-02
628.6815 0.4216460
629.1636 0.7148340
629.6458 0.7375770
630.1279 0.6746370
630.6100 0.5606020
631.0921 0.4472480
631.5742 0.4485230
632.0563 0.6412140
632.5385 0.8033750
633.0206 0.7172430
633.5027 0.5021320
633.9848 0.4290490
634.4669 0.5325260
634.9490 0.5755840
635.4312 0.3551600
635.9133 4.6762001E-02
636.3954 0.2425170
636.8775 5.9762999E-02
637.3596 0.1083930
637.8417 0.2867640
638.3239 0.4168210
638.8060 0.4536210
639.2881 0.4032290
639.7702 0.2942660
640.2523 0.1374630
640.7344 5.1233001E-02
641.2166 0.2758330
641.6987 0.5449070
642.1808 0.6622960
642.6629 0.5424690
643.1450 0.3390850
643.6271 0.1643640
644.1093 1.5003000E-02
644.5914 0.1118640
645.0735 0.2324890
645.5556 0.3118670
646.0377 0.3050630
646.5198 0.2564810
647.0020 0.2693310
647.4841 0.3526650
647.9662 0.4036160
648.4483 0.3168530
648.9304 0.1234440
649.4125 5.0112002E-02
649.8947 0.1773620
650.3768 0.2749000
650.8589 0.3912870
651.3410 0.3962230
651.8231 5.1847000E-02
652.3052 0.5394120
652.7874 0.8806170
653.2695 0.5807360
653.7516 4.4762000E-02
654.2337 0.2558570
654.7158 0.3570690
655.1979 0.4188800
655.6801 0.4841480
656.1622 0.5391330
656.6443 0.5808530
657.1264 0.6139160
657.6085 0.5345760
658.0906 0.1495510
658.5728 9.0630002E-02
659.0549 5.0051000E-02
659.5370 0.3113940
660.0191 0.4222930
660.5012 0.3326340
660.9833 0.1907630
661.4655 9.2359997E-02
661.9476 4.2305000E-02
662.4297 8.8762000E-02
662.9118 0.2539980
663.3939 0.3306980
663.8760 0.2026500
664.3582 2.2329001E-02
