#Shining_header
#Data type:raman_database
#CAS:Not entered
#Material scientific name:Barrerite
#Manufacturer:Not entered
#Laser model:Not entered
#Spectrometer model:Not entered
#Testing unit:Not entered
#Test time:Not entered
#Other experimental details:Not entered
#Shining_data
196.2582 0.0000000E+00
196.7403 8.8019997E-02
197.2225 0.7352750
197.7046 1.379784
198.1867 1.431534
198.6688 0.6937560
199.1509 3.6392000E-02
199.6330 3.0951999E-02
200.1152 0.3676760
200.5973 0.8846590
201.0794 1.439316
201.5615 1.876625
202.0436 1.955772
202.5257 1.612938
203.0079 1.185791
203.4900 0.7956160
203.9721 0.7051090
204.4542 1.053680
204.9363 1.135147
205.4184 1.196175
205.9006 1.304031
206.3827 1.601662
206.8648 1.938660
207.3469 2.010399
207.8290 2.038452
208.3111 2.070190
208.7933 2.156555
209.2754 2.228523
209.7575 2.062225
210.2396 1.509224
210.7217 0.9395290
211.2038 0.3314290
211.6860 0.1935960
212.1681 0.4767150
212.6502 0.4137880
213.1323 6.3583001E-02
213.6144 0.3246310
214.0965 1.001457
214.5787 1.378624
215.0608 1.173935
215.5429 0.6579210
216.0250 0.1612780
216.5071 0.1381840
216.9892 0.2370380
217.4713 0.1172180
217.9535 0.6042020
218.4356 1.148491
218.9177 1.275772
219.3998 1.170761
219.8819 1.119255
220.3640 1.291031
220.8462 1.647285
221.3283 1.931709
221.8104 2.129723
222.2925 2.277245
222.7746 2.321526
223.2567 2.323959
223.7389 2.381523
224.2210 2.546219
224.7031 2.814621
225.1852 3.176270
225.6673 3.965759
226.1494 4.469048
226.6316 4.293465
227.1137 3.673203
227.5958 3.101746
228.0779 2.825012
228.5600 2.807533
229.0421 2.910004
229.5243 3.200157
230.0064 3.499420
230.4885 3.740761
230.9706 3.937584
231.4527 4.119553
231.9348 4.275665
232.4170 4.454605
232.8991 4.794968
233.3812 5.448425
233.8633 5.974632
234.3454 6.041870
234.8275 5.752518
235.3097 5.535393
235.7918 5.568817
236.2739 5.770111
236.7560 5.974831
237.2381 6.187538
237.7202 6.391151
238.2024 6.557640
238.6845 6.696678
239.1666 6.864380
239.6487 7.052681
240.1308 7.309067
240.6129 7.742508
241.0951 8.402908
241.5772 8.935173
242.0593 8.951691
242.5414 8.494736
243.0235 8.219063
243.5056 8.299538
243.9878 8.632919
244.4699 9.209785
244.9520 10.02500
245.4341 10.75642
245.9162 11.10689
246.3983 11.07796
246.8805 10.98184
247.3626 10.59023
247.8447 10.41384
248.3268 10.90298
248.8089 11.99931
249.2910 13.14625
249.7732 13.83050
250.2553 14.03573
250.7374 14.26691
251.2195 14.75967
251.7016 15.09019
252.1837 14.91893
252.6659 14.35265
253.1480 13.82364
253.6301 13.75771
254.1122 14.19679
254.5943 14.55209
255.0764 14.50665
255.5586 14.67858
256.0407 15.60312
256.5228 16.99795
257.0049 18.06297
257.4870 17.97683
257.9691 16.70599
258.4513 16.17082
258.9334 17.27365
259.4155 18.32655
259.8976 18.87383
260.3797 19.00477
260.8618 18.97948
261.3440 18.95617
261.8261 18.93973
262.3082 19.10076
262.7903 19.68913
263.2724 20.22209
263.7545 20.48248
264.2367 20.62198
264.7188 20.94727
265.2009 21.69055
265.6830 22.76791
266.1651 23.46628
266.6472 23.24222
267.1294 23.20602
267.6115 23.75050
268.0936 24.55630
268.5757 25.06482
269.0578 24.93742
269.5399 24.39539
270.0221 24.47079
270.5042 26.16274
270.9863 27.43037
271.4684 27.70890
271.9505 27.53292
272.4326 27.59574
272.9148 28.22182
273.3969 29.21719
273.8790 30.03755
274.3611 30.66242
274.8432 31.09618
275.3253 31.20859
275.8075 31.19267
276.2896 31.21194
276.7717 31.33504
277.2538 31.58030
277.7359 31.99606
278.2180 32.95274
278.7002 33.50296
279.1823 33.48612
279.6644 33.13956
280.1465 32.53351
280.6286 31.72395
281.1107 31.02688
281.5929 30.93053
282.0750 31.76775
282.5571 32.26765
283.0392 32.32735
283.5213 32.10766
284.0034 31.62204
284.4856 30.93356
284.9677 30.37954
285.4498 30.41311
285.9319 31.20853
286.4140 31.26692
286.8961 29.86688
287.3783 28.28918
287.8604 27.45997
288.3425 27.40102
288.8246 27.57333
289.3067 27.54558
289.7888 27.30335
290.2710 27.14207
290.7531 27.28207
291.2352 27.25962
291.7173 26.65245
292.1994 25.57953
292.6815 24.59920
293.1637 24.10593
293.6458 24.04483
294.1279 23.89439
294.6100 23.72077
295.0921 23.37585
295.5742 22.64616
296.0564 21.66119
296.5385 20.79916
297.0206 20.27041
297.5027 19.96564
297.9848 19.52470
298.4669 18.82739
298.9491 18.23982
299.4312 17.98493
299.9133 17.90536
300.3954 17.65729
300.8775 17.08086
301.3596 16.40318
301.8418 16.16068
302.3239 16.56921
302.8060 16.54200
303.2881 15.38591
303.7702 13.78849
304.2523 12.77132
304.7345 12.60459
305.2166 12.76567
305.6987 12.58006
306.1808 12.00493
306.6629 11.65771
307.1451 11.86661
307.6272 12.21074
308.1093 12.20902
308.5914 11.80212
309.0735 11.33868
309.5556 11.17672
310.0378 11.28888
310.5199 11.12756
311.0020 10.36822
311.4841 9.552002
311.9662 9.136833
312.4483 9.099762
312.9305 9.067696
313.4126 8.783913
313.8947 8.310814
314.3768 7.963333
314.8589 7.871956
315.3410 7.766991
315.8232 7.439056
316.3053 6.962227
316.7874 6.626190
317.2695 6.618515
317.7516 6.764030
318.2337 6.602180
318.7159 5.960999
319.1980 5.450958
319.6801 5.404526
320.1622 5.633583
320.6443 5.780800
321.1264 5.742783
321.6086 5.566841
322.0907 5.276192
322.5728 4.845749
323.0549 4.502502
323.5370 4.238701
324.0191 4.111763
324.5013 4.334419
324.9834 4.969803
325.4655 5.478844
325.9476 5.182266
326.4297 4.074310
326.9118 3.350967
327.3940 3.378998
327.8761 3.640182
328.3582 3.767479
328.8403 3.733238
329.3224 3.562607
329.8045 3.245499
330.2867 2.796333
330.7688 2.354881
331.2509 1.788963
331.7330 1.356659
332.2151 1.234856
332.6972 1.362686
333.1794 1.580925
333.6615 1.867065
334.1436 2.121590
334.6257 2.047386
335.1078 1.537605
335.5899 0.9944530
336.0721 0.4965440
336.5542 4.7874000E-02
337.0363 0.3084180
337.5184 0.5471340
338.0005 0.7931060
338.4826 1.316391
338.9648 2.274963
339.4469 2.790031
339.9290 2.403389
340.4111 1.729996
340.8932 1.279701
341.3753 1.143784
341.8574 1.354576
342.3395 2.065315
342.8217 3.332489
343.3038 4.008980
343.7859 3.712044
344.2680 3.188858
344.7501 2.760216
345.2322 2.468727
345.7144 2.369049
346.1965 2.524345
346.6786 2.885712
347.1607 3.165604
347.6428 3.491714
348.1249 3.614563
348.6071 3.383255
349.0892 2.917969
349.5713 2.350746
350.0534 1.710609
350.5355 1.156456
351.0176 1.029823
351.4998 1.672493
351.9819 2.103088
352.4640 2.248222
352.9461 2.173309
353.4282 1.892166
353.9103 1.423119
354.3925 0.8583910
354.8746 0.2768400
355.3567 0.3574300
355.8388 0.7782140
356.3209 0.7798840
356.8030 0.7826840
357.2852 1.050980
357.7673 1.529564
358.2494 1.967651
358.7315 2.157944
359.2136 2.154282
359.6957 2.498955
360.1779 3.637848
360.6600 4.584908
361.1421 5.019997
361.6242 5.182274
362.1063 5.368973
362.5884 5.706680
363.0706 6.209801
363.5527 6.905396
364.0348 7.865608
364.5169 8.943710
364.9990 10.27214
365.4811 11.61480
365.9633 12.82209
366.4454 13.85703
366.9275 14.74773
367.4096 15.51304
367.8917 16.11533
368.3738 16.78364
368.8560 17.32478
369.3381 18.11178
369.8202 19.49844
370.3023 21.25739
370.7844 22.84573
371.2665 23.87038
371.7487 24.47726
372.2308 25.51789
372.7129 27.36007
373.1950 29.17323
373.6771 30.72136
374.1592 32.21200
374.6414 33.90096
375.1235 35.87871
375.6056 37.93803
376.0877 39.68521
376.5698 40.98485
377.0519 42.37897
377.5341 43.86499
378.0162 45.48521
378.4983 47.26767
378.9804 49.21255
379.4625 51.31570
379.9446 53.61110
380.4268 56.08868
380.9089 58.53815
381.3910 60.88192
381.8731 63.29539
382.3552 65.76370
382.8373 68.33906
383.3195 71.12116
383.8016 74.17171
384.2837 77.41198
384.7658 80.74958
385.2479 84.21591
385.7300 87.62628
386.2122 90.74686
386.6943 93.86177
387.1764 97.15128
387.6585 100.6560
388.1406 104.3666
388.6227 108.3847
389.1049 112.6807
389.5870 116.6419
390.0691 119.8129
390.5512 123.1715
391.0333 127.4904
391.5154 132.5981
391.9976 137.9009
392.4797 143.2256
392.9618 148.5236
393.4439 153.6887
393.9260 158.7193
394.4081 163.7143
394.8903 168.7263
395.3724 173.7547
395.8545 178.8300
396.3366 184.0433
396.8187 189.1240
397.3008 193.5880
397.7830 197.7428
398.2651 202.9922
398.7472 210.0444
399.2293 217.7851
399.7114 224.4539
400.1935 229.9887
400.6757 235.5880
401.1578 242.1313
401.6399 248.7758
402.1220 254.2443
402.6041 258.3853
403.0862 262.1092
403.5684 266.1768
404.0505 270.4673
404.5326 274.0801
405.0147 276.6383
405.4968 278.9148
405.9789 281.4339
406.4611 284.0049
406.9432 286.2284
407.4253 288.0275
407.9074 289.0977
408.3895 288.6407
408.8716 285.7330
409.3538 282.9299
409.8359 280.8276
410.3180 278.6693
410.8001 275.8362
411.2822 272.2333
411.7643 268.0400
412.2465 263.4767
412.7286 258.5535
413.2107 252.7612
413.6928 245.4315
414.1749 238.0267
414.6570 231.1082
415.1392 224.4313
415.6213 217.5952
416.1034 210.3883
416.5855 202.8786
417.0676 195.2117
417.5497 187.1248
418.0319 179.3564
418.5140 171.8320
418.9961 164.6812
419.4782 158.0891
419.9603 152.0424
420.4424 146.2065
420.9246 140.1507
421.4067 133.8199
421.8888 128.3304
422.3709 124.5405
422.8530 120.5912
423.3351 115.7558
423.8173 110.3452
424.2994 104.7749
424.7815 99.14788
425.2636 93.71958
425.7457 89.07497
426.2278 85.31020
426.7100 81.82632
427.1921 78.62331
427.6742 75.54680
428.1563 72.48120
428.6384 69.40899
429.1205 66.44798
429.6027 63.66364
430.0848 61.05895
430.5669 58.59953
431.0490 56.27945
431.5311 54.11394
432.0132 52.24336
432.4954 50.52406
432.9775 48.67771
433.4596 46.44625
433.9417 44.27247
434.4238 42.65936
434.9059 41.51238
435.3881 40.24484
435.8702 38.51523
436.3523 36.73799
436.8344 35.73245
437.3165 35.60437
437.7986 35.38065
438.2808 34.76586
438.7629 33.95020
439.2450 33.03015
439.7271 32.05235
440.2092 31.33403
440.6913 31.18629
441.1735 31.58147
441.6556 31.83734
442.1377 32.11829
442.6198 32.10243
443.1019 31.21776
443.5840 30.07671
444.0662 29.73804
444.5483 30.60136
445.0304 32.09814
445.5125 33.28178
445.9946 34.20518
446.4767 34.61862
446.9589 33.83247
447.4410 33.20647
447.9231 33.67984
448.4052 35.05902
448.8873 36.51469
449.3694 37.42091
449.8516 37.90414
450.3337 38.72893
450.8158 40.20947
451.2979 41.54802
451.7800 42.63658
452.2621 43.51076
452.7443 44.08891
453.2264 44.37981
453.7085 44.72314
454.1906 45.56701
454.6727 46.92907
455.1548 48.22700
455.6370 49.51759
456.1191 50.59829
456.6012 51.39630
457.0833 51.92771
457.5654 52.22439
458.0475 52.29742
458.5297 52.14346
459.0118 51.65617
459.4939 50.82419
459.9760 50.16551
460.4581 50.18707
460.9402 50.16989
461.4224 49.04491
461.9045 46.69534
462.3866 44.43510
462.8687 43.04018
463.3508 41.94700
463.8329 40.25520
464.3151 37.84572
464.7972 35.23265
465.2793 32.73773
465.7614 30.39943
466.2435 28.44115
466.7256 27.10548
467.2078 25.85987
467.6899 24.49897
468.1720 23.06982
468.6541 21.65215
469.1362 20.29111
469.6183 19.03945
470.1005 17.93939
470.5826 16.95372
471.0647 16.27462
471.5468 15.95628
472.0289 15.82750
472.5110 15.84748
472.9932 15.98526
473.4753 16.18542
473.9574 16.40760
474.4395 16.71320
474.9216 17.34661
475.4037 18.68829
475.8859 19.57777
476.3680 19.14347
476.8501 18.75423
477.3322 19.51477
477.8143 21.43638
478.2964 23.64787
478.7786 25.40598
479.2607 26.80040
479.7428 28.34397
480.2249 30.04536
480.7070 31.87862
481.1891 33.96578
481.6713 36.14211
482.1534 38.11514
482.6355 39.71287
483.1176 41.50669
483.5997 44.20838
484.0818 47.56033
484.5640 50.46136
485.0461 52.47502
485.5282 54.49820
486.0103 57.63000
486.4924 61.73078
486.9745 65.56683
487.4567 68.92068
487.9388 72.01067
488.4209 74.77528
488.9030 77.37019
489.3851 80.25759
489.8672 83.64681
490.3494 87.41741
490.8315 91.35989
491.3136 95.54776
491.7957 99.77354
492.2778 104.2530
492.7599 108.6069
493.2421 112.6490
493.7242 116.3409
494.2063 119.6979
494.6884 122.8158
495.1705 125.5427
495.6526 127.0746
496.1348 127.0330
496.6169 126.3128
497.0990 125.1430
497.5811 123.3866
498.0632 120.9549
498.5453 117.8101
499.0275 113.9370
499.5096 109.1744
499.9917 103.5722
500.4738 97.74670
500.9559 91.61910
501.4380 85.49584
501.9202 79.42950
502.4023 73.48969
502.8844 67.76247
503.3665 62.27988
503.8486 57.05423
504.3307 52.16481
504.8129 47.56974
505.2950 43.13480
505.7771 38.82219
506.2592 34.74773
506.7413 31.00816
507.2234 27.62257
507.7055 24.52568
508.1877 21.60545
508.6698 19.09695
509.1519 17.28579
509.6340 15.98344
510.1161 14.81776
510.5982 13.63977
511.0804 12.39546
511.5625 10.94199
512.0446 9.063862
512.5267 7.548351
513.0089 6.635983
513.4910 5.818378
513.9731 4.765301
514.4552 3.590839
514.9373 2.594528
515.4194 1.964043
515.9016 1.602318
516.3837 1.265572
516.8658 0.9369510
517.3479 0.6834110
517.8300 0.6944390
518.3121 0.6418000
518.7943 0.2373890
519.2764 0.4617200
519.7585 1.089161
520.2406 1.419102
520.7227 1.515770
521.2048 1.454533
521.6870 1.199516
522.1691 1.064602
522.6512 1.235424
523.1333 1.581337
523.6154 1.914406
524.0975 2.268341
524.5797 2.447212
525.0618 2.207115
525.5439 1.841209
526.0260 1.740265
526.5081 1.930893
526.9902 2.182053
527.4724 2.345924
527.9545 2.425217
528.4366 2.419701
528.9187 2.277260
529.4008 2.126270
529.8829 1.944576
530.3651 1.783958
530.8472 1.691315
531.3293 1.674988
531.8114 1.725357
532.2935 1.863071
532.7756 2.075817
533.2578 2.081894
533.7399 1.682087
534.2220 1.377758
534.7041 1.355309
535.1862 1.452312
535.6683 1.523098
536.1505 1.530773
536.6326 1.477486
537.1147 1.325428
537.5968 1.102768
538.0789 0.9504010
538.5610 0.9020120
539.0432 0.8492090
539.5253 0.6608810
540.0074 0.4296110
540.4895 0.3887480
540.9716 0.7112200
541.4537 0.9541470
541.9359 0.8671910
542.4180 0.5497510
542.9001 0.1180190
543.3822 0.3976290
543.8643 0.8503380
544.3464 1.063900
544.8286 1.025852
545.3107 1.216274
545.7928 2.028458
546.2749 2.567890
546.7570 2.382767
547.2391 1.903999
547.7213 1.645527
548.2034 1.749485
548.6855 2.023235
549.1676 2.260849
549.6497 2.463318
550.1318 2.597820
550.6140 2.551094
551.0961 2.601555
551.5782 2.919537
552.0603 3.358196
552.5424 3.749096
553.0245 4.059307
553.5067 4.237282
553.9888 4.182648
554.4709 3.949299
554.9530 3.677376
555.4351 3.326546
555.9172 3.202232
556.3994 3.666721
556.8815 4.601456
557.3636 5.301582
557.8457 5.775673
558.3278 5.978895
558.8099 5.579342
559.2921 5.012005
559.7742 4.957626
560.2563 5.555635
560.7384 6.417961
561.2205 7.175861
561.7026 7.840040
562.1848 8.178034
562.6669 7.823183
563.1490 7.555761
563.6311 7.577656
564.1132 7.732822
564.5953 7.896681
565.0775 8.019444
565.5596 8.006716
566.0417 7.624573
566.5238 6.936794
567.0059 6.648218
567.4880 6.886955
567.9702 7.258076
568.4523 7.622200
568.9344 7.965816
569.4165 8.276016
569.8986 8.568203
570.3807 8.770714
570.8629 8.850349
571.3450 8.809666
571.8271 8.592663
572.3092 8.200516
572.7913 7.854143
573.2734 7.707705
573.7556 7.751656
574.2377 7.915243
574.7198 8.341022
575.2019 8.688894
575.6840 8.744726
576.1661 8.815689
576.6483 9.351381
577.1304 10.26690
577.6125 10.92760
578.0946 10.74266
578.5767 9.895550
579.0588 9.370787
579.5410 9.218479
580.0231 9.298347
580.5052 9.751883
580.9873 10.27590
581.4694 10.60621
581.9515 10.72992
582.4337 10.90805
582.9158 11.45427
583.3979 12.11094
583.8800 12.37155
584.3621 12.22391
584.8442 12.07726
585.3264 12.15282
585.8085 12.32151
586.2906 12.29722
586.7727 11.99186
587.2548 11.81123
587.7369 11.86398
588.2190 11.99210
588.7011 12.12281
589.1832 12.22808
589.6653 12.25228
590.1475 12.15506
590.6296 12.03067
591.1117 12.14710
591.5938 12.65684
592.0759 13.01731
592.5580 13.00964
593.0402 12.97340
593.5223 13.08213
594.0044 13.29139
594.4865 13.47260
594.9686 13.56439
595.4507 13.65260
595.9329 13.79759
596.4150 14.00263
596.8971 14.32785
597.3792 14.81742
597.8613 15.36398
598.3434 15.87943
598.8256 16.33391
599.3077 16.66466
599.7898 16.84515
600.2719 16.99270
600.7540 17.11705
601.2361 17.25837
601.7183 17.45845
602.2004 17.71228
602.6825 17.97268
603.1646 18.20078
603.6467 18.42030
604.1288 18.75972
604.6110 19.34296
605.0931 19.79098
605.5752 19.89235
606.0573 19.92354
606.5394 20.16328
607.0215 20.63892
607.5037 21.12546
607.9858 21.41525
608.4679 21.61720
608.9500 22.02771
609.4321 22.66804
609.9142 23.11610
610.3964 23.07079
610.8785 22.82902
611.3606 23.05899
611.8427 23.97550
612.3248 24.56300
612.8069 24.56071
613.2891 24.32655
613.7712 23.98067
614.2533 23.62987
614.7354 23.42206
615.2175 23.42118
615.6996 23.59697
616.1818 23.97358
616.6639 24.66664
617.1460 25.00076
617.6281 24.74374
618.1102 24.36016
618.5923 24.02105
619.0745 23.71600
619.5566 23.42641
620.0387 23.15355
620.5208 22.87058
621.0029 22.51665
621.4850 22.15050
621.9672 22.03862
622.4493 22.24638
622.9314 22.30505
623.4135 21.76446
623.8956 20.75898
624.3777 20.13953
624.8599 20.24706
625.3420 20.23658
625.8241 19.92886
626.3062 19.51352
626.7883 19.11856
627.2704 18.77203
627.7526 18.49895
628.2347 18.34109
628.7168 18.22696
629.1989 17.89172
629.6810 17.26520
630.1631 16.67280
630.6453 16.20050
631.1274 15.77259
631.6095 15.26579
632.0916 14.75152
632.5737 14.48046
633.0558 14.74489
633.5380 15.02845
634.0201 14.94125
634.5022 14.59093
634.9843 14.19713
635.4664 13.81250
635.9485 13.38529
636.4307 12.81208
636.9128 12.08433
637.3949 11.80418
637.8770 12.52432
638.3591 12.91391
638.8412 12.70175
639.3234 12.17277
639.8055 11.44180
640.2876 10.56795
640.7697 9.823587
641.2518 9.439568
641.7339 9.303543
642.2161 9.143021
642.6982 8.948050
643.1803 8.784752
643.6624 8.685293
644.1445 8.618114
644.6266 8.549706
645.1088 8.480867
645.5909 8.392456
646.0730 8.361805
646.5551 8.230486
647.0372 7.794662
647.5193 7.222946
648.0015 6.831614
648.4836 6.706743
648.9657 6.703722
649.4478 6.657269
649.9299 6.567261
650.4120 6.450344
650.8942 6.426010
651.3763 6.163139
651.8584 5.179720
652.3405 4.151295
652.8226 3.845881
653.3047 4.334028
653.7869 4.753201
654.2690 4.561047
654.7511 4.071266
655.2332 3.582325
655.7153 3.145826
656.1974 3.034157
656.6796 3.412640
657.1617 3.934610
657.6438 4.045849
658.1259 3.637196
658.6080 3.251614
659.0901 2.848633
659.5723 2.513454
660.0544 2.256920
660.5365 2.094229
661.0186 2.048626
661.5007 2.124041
661.9828 2.287891
662.4650 2.624727
662.9471 3.036310
663.4292 3.039227
663.9113 2.554911
664.3934 2.130276
664.8755 2.055771
665.3577 2.127743
665.8398 1.934097
666.3219 1.397173
666.8040 1.150234
667.2861 1.652740
667.7682 2.133551
668.2504 2.007092
668.7325 1.504745
669.2146 1.118799
669.6967 1.034582
670.1788 1.111189
670.6609 1.199427
671.1431 1.304571
671.6252 1.260626
672.1073 0.9681430
672.5894 0.7130640
673.0715 0.6318760
673.5536 0.6331670
674.0358 0.6414090
674.5179 0.6504800
675.0000 0.6337660
675.4821 0.5373120
675.9642 0.4394930
676.4464 0.5047470
676.9285 0.6567190
677.4106 0.5548400
677.8927 4.5724999E-02
678.3748 0.5338040
678.8569 0.6865040
679.3391 0.3621100
679.8212 9.7799003E-02
680.3033 1.142950
680.7854 1.771517
681.2675 1.465841
681.7496 0.7793830
682.2318 0.2802730
682.7139 7.7604003E-02
683.1960 3.3222001E-02
683.6781 0.1511150
684.1602 0.3202400
684.6423 0.3427600
685.1245 0.2223680
685.6066 1.4297000E-02
686.0887 0.2886100
686.5708 0.5737690
687.0529 0.6703570
687.5350 0.5437930
688.0172 0.4117680
688.4993 0.1867310
688.9814 5.9269000E-02
689.4635 0.2050550
689.9456 0.4207520
690.4277 0.4452920
690.9099 0.2438770
691.3920 1.7340001E-02
691.8741 3.8826000E-02
692.3562 9.1900001E-04
692.8383 0.1674690
693.3204 0.5625110
693.8026 0.6216600
694.2847 7.2780000E-03
694.7668 0.7715930
695.2489 0.9308990
695.7310 0.4505900
696.2131 0.1704270
696.6953 0.4179270
697.1774 0.5308860
697.6595 2.8170000E-03
698.1416 0.6770740
698.6237 0.8088260
699.1058 0.3419880
699.5880 0.1265300
700.0701 5.6921002E-02
700.5522 0.3904250
701.0343 0.6568320
701.5164 0.7230360
701.9985 0.7356050
702.4807 0.7242970
702.9628 0.6797900
703.4449 0.5835290
703.9270 0.4435080
704.4091 0.2943330
704.8912 7.5969999E-03
705.3734 0.1306340
705.8555 0.1795520
706.3376 0.6181030
706.8197 0.7078760
707.3018 0.4450230
707.7839 0.2550750
708.2661 0.4837990
708.7482 0.9683950
709.2303 1.176626
709.7124 1.033573
710.1945 0.9355260
710.6766 0.9097140
711.1588 0.9870970
711.6409 1.329220
712.1230 1.781576
712.6051 1.916557
713.0872 1.459940
713.5693 1.054436
714.0515 1.066462
714.5336 1.266794
715.0157 1.417877
715.4978 1.476601
715.9799 1.424089
716.4620 1.238071
716.9442 1.003862
717.4263 0.9337560
717.9084 1.068499
