#Shining_header
#Data type:raman_database
#CAS:Not entered
#Material scientific name:Avogadrite
#Manufacturer:Not entered
#Laser model:Not entered
#Spectrometer model:Not entered
#Testing unit:Not entered
#Test time:Not entered
#Other experimental details:Not entered
#Shining_data
178.3845 0.0000000E+00
178.8666 0.4045720
179.3488 0.3417210
179.8309 3.2875001E-02
180.3130 3.0440999E-02
180.7951 0.4629820
181.2772 1.001732
181.7593 2.045036
182.2415 3.069382
182.7236 3.734955
183.2057 3.439560
183.6878 2.720047
184.1699 2.140831
184.6520 2.061104
185.1342 1.594566
185.6163 0.9387740
186.0984 0.3325200
186.5805 4.8139999E-03
187.0626 1.5198000E-02
187.5447 0.3204120
188.0269 1.296455
188.5090 3.302460
188.9911 4.368530
189.4732 3.081566
189.9553 0.7141720
190.4374 0.3613280
190.9196 0.8009190
191.4017 2.867271
191.8838 3.950653
192.3659 4.028938
192.8480 3.912361
193.3301 3.916283
193.8123 4.020256
194.2944 4.165077
194.7765 4.398193
195.2586 4.558289
195.7407 4.407532
196.2228 3.939804
196.7050 3.586586
197.1871 3.782494
197.6692 4.476044
198.1513 4.943413
198.6334 5.096733
199.1155 4.909470
199.5977 4.161041
200.0798 2.935417
200.5619 1.805779
201.0440 1.815170
201.5261 3.207344
202.0082 4.147293
202.4904 4.129395
202.9725 3.806168
203.4546 3.454277
203.9367 3.159180
204.4188 2.900162
204.9009 2.924843
205.3831 2.629646
205.8652 2.392357
206.3473 2.781075
206.8294 3.231102
207.3115 3.485008
207.7936 3.541664
208.2758 3.464981
208.7579 3.131485
209.2400 2.422523
209.7221 2.175072
210.2042 2.674294
210.6863 3.264694
211.1685 3.783707
211.6506 4.152252
212.1327 4.374374
212.6148 4.460732
213.0969 4.434708
213.5790 4.165535
214.0612 3.405151
214.5433 2.581932
215.0254 1.989975
215.5075 1.711639
215.9896 1.657562
216.4717 1.719582
216.9539 1.970139
217.4360 2.170013
217.9181 2.294815
218.4002 2.378029
218.8823 2.526466
219.3644 2.767380
219.8466 2.854462
220.3287 2.266251
220.8108 0.7480320
221.2929 6.4389999E-03
221.7750 1.059059
222.2571 2.709862
222.7393 3.358429
223.2214 2.581200
223.7035 1.357742
224.1856 0.9411010
224.6677 1.261131
225.1498 1.476852
225.6320 1.187042
226.1141 0.7065580
226.5962 0.5593950
227.0783 0.8642880
227.5604 1.407379
228.0425 2.239883
228.5247 3.240410
229.0068 3.755569
229.4889 3.320213
229.9710 2.239784
230.4531 1.053741
230.9352 0.4338610
231.4174 1.462418
231.8995 1.183403
232.3816 1.4435000E-02
232.8637 1.108528
233.3458 1.501442
233.8279 1.399139
234.3101 1.540382
234.7922 2.213203
235.2743 2.645332
235.7564 2.287964
236.2385 1.409279
236.7206 0.5809100
237.2028 1.8051000E-02
237.6849 0.2394030
238.1670 6.7359999E-02
238.6491 1.522980
239.1312 2.661499
239.6133 2.836899
240.0955 2.349068
240.5776 1.639328
241.0597 0.7903210
241.5418 2.6314000E-02
242.0239 0.1334230
242.5060 2.282974
242.9882 4.038559
243.4703 4.585838
243.9524 4.358849
244.4345 3.976257
244.9166 3.774368
245.3987 3.736389
245.8809 3.749168
246.3630 3.794899
246.8451 3.911514
247.3272 4.255722
247.8093 4.628410
248.2914 4.748909
248.7736 4.542923
249.2557 4.037315
249.7378 3.443825
250.2199 2.296722
250.7020 1.704941
251.1841 2.167320
251.6663 3.094566
252.1484 3.823280
252.6305 4.036545
253.1126 3.892357
253.5947 3.885811
254.0768 4.345558
254.5590 4.540924
255.0411 4.102318
255.5232 3.506958
256.0053 3.254486
256.4874 3.558350
256.9695 4.313164
257.4517 5.266617
257.9338 7.052536
258.4159 8.271744
258.8980 8.647026
259.3801 8.548897
259.8622 8.240364
260.3444 7.829201
260.8265 7.519775
261.3086 7.559380
261.7907 8.297722
262.2728 8.747757
262.7549 8.810623
263.2371 8.606407
263.7192 8.132797
264.2013 7.404869
264.6834 6.754356
265.1655 6.699425
265.6476 7.539528
266.1298 8.320053
266.6119 9.206810
267.0940 9.934616
267.5761 10.08514
268.0582 9.615295
268.5403 9.108681
269.0225 9.355194
269.5046 10.66805
269.9867 11.18204
270.4688 10.08044
270.9509 8.646622
271.4330 8.071869
271.9152 8.470596
272.3973 9.014572
272.8794 8.876587
273.3615 7.994598
273.8436 7.455872
274.3257 7.578606
274.8079 7.836769
275.2900 7.790253
275.7721 7.429764
276.2542 7.067993
276.7363 6.974342
277.2184 7.102013
277.7006 7.017822
278.1827 6.431030
278.6648 5.852272
279.1469 5.653748
279.6290 5.851349
280.1111 6.173378
280.5933 6.489754
281.0754 6.805359
281.5575 7.154655
282.0396 7.819664
282.5217 8.193733
283.0038 7.605095
283.4860 6.260017
283.9681 5.303078
284.4502 5.442734
284.9323 6.142387
285.4144 6.186073
285.8965 5.279129
286.3787 4.456528
286.8608 4.387711
287.3429 4.894867
287.8250 5.397079
288.3071 5.862740
288.7892 5.948082
289.2714 5.037247
289.7535 3.064621
290.2356 1.531609
290.7177 1.430481
291.1998 2.218605
291.6819 2.372879
292.1641 1.259239
292.6462 4.8531000E-02
293.1283 0.2157590
293.6104 1.580612
294.0925 2.805473
294.5746 3.375443
295.0568 3.432770
295.5389 3.116058
296.0210 2.277397
296.5031 1.699158
296.9852 2.473923
297.4673 4.100327
297.9495 5.198318
298.4316 5.080788
298.9137 4.265709
299.3958 3.378777
299.8779 2.401848
300.3600 1.711159
300.8422 1.796196
301.3243 2.279770
301.8064 2.517784
302.2885 2.231995
302.7706 1.779770
303.2527 1.532990
303.7349 1.494316
304.2170 1.619705
304.6991 2.045128
305.1812 2.550598
305.6633 2.876648
306.1454 3.033699
306.6276 2.899780
307.1097 2.150452
307.5918 0.8378220
308.0739 0.1387250
308.5560 0.3730700
309.0381 0.2029420
309.5203 4.1076999E-02
310.0024 9.7038001E-02
310.4845 0.2717670
310.9666 0.5718460
311.4487 0.9601670
311.9308 1.247200
312.4130 1.371193
312.8951 1.412498
313.3772 1.510239
313.8593 1.636459
314.3414 1.575089
314.8235 0.9196170
315.3057 7.5610001E-03
315.7878 0.1320720
316.2699 0.9556580
316.7520 1.919037
317.2341 1.471718
317.7162 0.1515580
318.1984 0.9096530
318.6805 1.263939
319.1626 1.145363
319.6447 0.8427660
320.1268 0.3124620
320.6089 0.1855390
321.0911 0.4948580
321.5732 0.6828540
322.0553 0.8414310
322.5374 1.028900
323.0195 1.127739
323.5016 0.8884580
323.9838 0.3043820
324.4659 1.3657000E-02
324.9480 0.5405500
325.4301 1.287399
325.9122 1.440315
326.3943 0.8372570
326.8765 0.2806020
327.3586 0.4904020
327.8407 1.310883
328.3228 1.863213
328.8049 1.885422
329.2870 1.652695
329.7692 1.241676
330.2513 0.6936800
330.7334 0.6822280
331.2155 2.091202
331.6976 4.220337
332.1797 5.335228
332.6619 5.017792
333.1440 4.354607
333.6261 3.998276
334.1082 3.951584
334.5903 4.346420
335.0724 5.660927
335.5546 7.222191
336.0367 7.796318
336.5188 7.190186
337.0009 7.400490
337.4830 9.816559
337.9651 13.83020
338.4473 18.27063
338.9294 23.23582
339.4115 28.25991
339.8936 33.00251
340.3757 37.48639
340.8578 41.80856
341.3400 46.33104
341.8221 50.33902
342.3042 52.86255
342.7863 53.79718
343.2684 54.10764
343.7505 53.49564
344.2327 52.63234
344.7148 53.27863
345.1969 56.04538
345.6790 59.73392
346.1611 62.78304
346.6432 65.36337
347.1254 69.12238
347.6075 75.25768
348.0896 82.37899
348.5717 88.51010
349.0538 93.49886
349.5359 98.73975
350.0181 104.7770
350.5002 112.0240
350.9823 121.6374
351.4644 133.9684
351.9465 148.3935
352.4286 164.2366
352.9108 181.6826
353.3929 201.9924
353.8750 225.7333
354.3571 252.7675
354.8392 283.1046
355.3214 318.7126
355.8035 352.6561
356.2856 385.7431
356.7677 414.8075
357.2498 435.8286
357.7319 448.4827
358.2141 448.2503
358.6962 425.7884
359.1783 378.1625
359.6604 327.6185
360.1425 270.6779
360.6246 215.2901
361.1068 168.5904
361.5889 131.0176
362.0710 101.1827
362.5531 78.51897
363.0352 63.21750
363.5173 50.63872
363.9995 41.10007
364.4816 33.58110
364.9637 28.10587
365.4458 24.31859
365.9279 21.55605
366.4100 19.60532
366.8922 18.22680
367.3743 16.59200
367.8564 14.40146
368.3385 12.38416
368.8206 10.54762
369.3027 8.962044
369.7849 7.749245
370.2670 6.939743
370.7491 6.411804
371.2312 6.002129
371.7133 5.693634
372.1954 5.611549
372.6776 6.118217
373.1597 6.521385
373.6418 6.281319
374.1239 5.528313
374.6060 4.784378
375.0881 4.481323
375.5703 4.600693
376.0524 4.562416
376.5345 4.491714
377.0166 4.245407
377.4987 3.607605
377.9808 2.842461
378.4630 2.254433
378.9451 1.960777
379.4272 1.964714
379.9093 2.335190
380.3914 3.690079
380.8735 4.345100
381.3557 3.945061
381.8378 3.116623
382.3199 2.140305
382.8020 1.163895
383.2841 0.3931350
383.7662 9.6680000E-02
384.2484 0.3406220
384.7305 0.5818710
385.2126 1.022972
385.6947 1.265038
386.1768 0.8458400
386.6589 0.1443710
387.1411 4.4479001E-02
387.6232 0.8551790
388.1053 2.460625
388.5874 3.367165
389.0695 3.219315
389.5516 3.015572
390.0338 3.133423
390.5159 3.233444
390.9980 2.950027
391.4801 2.185501
391.9622 1.260567
392.4443 0.4927440
392.9265 0.1319810
393.4086 0.4515000
393.8907 0.3174060
394.3728 3.7498001E-02
394.8549 0.6419370
395.3370 1.387672
395.8192 1.913910
396.3013 1.802406
396.7834 1.299706
397.2655 1.289375
397.7476 1.983231
398.2297 2.618546
398.7119 2.811920
399.1940 2.703117
399.6761 2.403076
400.1582 1.869705
400.6403 1.308151
401.1224 0.9329610
401.6046 0.7322080
402.0867 0.5753330
402.5688 0.4776690
403.0509 0.3431170
403.5330 1.4290000E-02
404.0151 0.6057890
404.4973 1.001411
404.9794 1.048569
405.4615 0.7686390
405.9436 7.0039998E-03
406.4257 1.338562
406.9078 2.438560
407.3900 2.432663
407.8721 1.534912
408.3542 0.9679640
408.8363 0.9482190
409.3184 1.161537
409.8005 1.646011
410.2827 2.248390
410.7648 2.326401
411.2469 1.443504
411.7290 0.1853180
412.2111 1.9096000E-02
412.6932 1.534531
413.1754 2.496246
413.6575 2.125237
414.1396 1.230209
414.6217 0.5780260
415.1038 0.3222120
415.5859 0.3325880
416.0681 0.5247880
416.5502 0.9315640
417.0323 1.131866
417.5144 0.9197460
417.9965 0.7504350
418.4786 0.9381640
418.9608 1.289886
419.4429 1.374359
419.9250 0.9547270
420.4071 0.2601240
420.8892 5.7007000E-02
421.3713 0.3077930
421.8535 0.5695190
422.3356 0.7212070
422.8177 0.7619170
423.2998 0.5945510
423.7819 0.2657470
424.2640 2.2758000E-02
424.7462 0.1456070
425.2283 0.6626430
425.7104 1.130524
426.1925 1.700760
426.6746 2.044762
427.1567 1.900467
427.6389 1.469315
428.1210 1.201210
428.6031 1.306534
429.0852 1.620667
429.5673 1.843544
430.0494 1.993706
430.5316 2.022263
431.0137 1.593651
431.4958 1.174889
431.9779 1.260811
432.4600 1.873619
432.9421 2.583893
433.4243 3.256920
433.9064 3.797821
434.3885 3.663521
434.8706 2.484917
435.3527 1.434021
435.8348 1.364052
436.3170 1.908318
436.7991 2.535652
437.2812 3.231422
437.7633 3.808090
438.2454 4.149620
438.7275 4.242599
439.2097 3.874374
439.6918 2.697121
440.1739 1.438736
440.6560 1.360474
441.1381 2.533165
441.6202 3.500290
442.1024 3.762413
442.5845 3.681129
443.0666 3.611511
443.5487 3.557686
444.0308 3.420090
444.5129 3.045341
444.9951 2.491951
445.4772 2.297302
445.9593 2.877075
446.4414 3.278114
446.9235 3.014244
447.4056 2.448929
447.8878 2.242676
448.3699 2.560028
448.8520 2.932831
449.3341 2.615402
449.8162 1.081398
450.2983 0.3922040
450.7805 1.116188
451.2626 2.010597
451.7447 2.598854
452.2268 2.834755
452.7089 2.758095
453.1910 2.366470
453.6732 1.759186
454.1553 1.348610
454.6374 1.136429
455.1195 1.143120
455.6016 1.628441
456.0837 2.137527
456.5659 2.160988
457.0480 1.658920
457.5301 1.200645
458.0122 1.535469
458.4943 2.640770
458.9764 3.245354
459.4586 3.073196
459.9407 2.735580
460.4228 2.438454
460.9049 2.232735
461.3870 2.228806
461.8691 2.501167
462.3513 2.878372
462.8334 3.319786
463.3155 3.822075
463.7976 3.791321
464.2797 2.631081
464.7618 1.283325
465.2440 1.124275
465.7261 2.177368
466.2082 2.841705
466.6903 2.064751
467.1724 0.8880620
467.6545 0.7238920
468.1367 1.624908
468.6188 2.491455
469.1009 2.515579
469.5830 1.927200
470.0651 1.901497
470.5472 3.193390
471.0294 4.017677
471.5115 3.498322
471.9936 2.439354
472.4757 1.900185
472.9578 2.134537
473.4399 2.596687
473.9221 2.628448
474.4042 2.140099
474.8863 1.733551
475.3684 1.428345
475.8505 1.168907
476.3326 0.9726330
476.8148 0.8014830
477.2969 0.5387880
477.7790 0.1194230
478.2611 0.2539830
478.7432 3.2752998E-02
479.2253 1.173042
479.7075 1.866638
480.1896 1.375412
480.6717 0.7491070
481.1538 0.5583880
481.6359 0.7720110
482.1180 1.033905
482.6002 1.176003
483.0823 1.171120
483.5644 0.7933880
484.0465 0.1723710
484.5286 0.6956560
485.0107 4.4098001E-02
485.4929 1.297310
485.9750 2.328056
486.4571 3.144562
486.9392 3.283836
487.4213 1.723213
487.9034 0.6155780
488.3856 1.496040
488.8677 0.4455180
489.3498 1.055038
489.8319 1.836151
490.3140 1.904938
490.7961 1.880211
491.2783 1.720665
491.7604 1.515106
492.2425 1.212318
492.7246 0.9076610
493.2067 0.7542570
493.6888 0.8080670
494.1710 1.087410
494.6531 1.710648
495.1352 3.083855
495.6173 3.458855
496.0994 1.911339
496.5815 0.4165880
497.0637 2.8930999E-02
497.5458 0.4421620
498.0279 0.8657530
498.5100 0.8647310
498.9921 0.5667720
499.4742 0.2262420
499.9564 0.3151860
500.4385 0.4188610
500.9206 0.3623660
501.4027 1.205086
501.8848 1.744347
502.3669 1.974503
502.8491 1.978271
503.3312 1.799141
503.8133 1.502480
504.2954 0.9469070
504.7775 0.1035690
505.2596 0.4335100
505.7418 0.2858350
506.2239 0.2865680
506.7060 0.9504620
507.1881 1.731026
507.6702 2.456352
508.1523 2.981873
508.6345 3.414719
509.1166 3.881943
509.5987 4.402283
510.0808 5.125694
510.5629 6.251221
511.0450 7.722939
511.5272 8.927132
512.0093 9.592621
512.4914 10.36161
512.9735 11.61584
513.4556 13.03000
513.9377 14.00441
514.4199 14.43632
514.9020 15.02866
515.3841 16.73667
515.8662 19.77805
516.3483 22.41915
516.8304 23.73917
517.3126 25.62291
517.7947 28.81165
518.2768 32.84079
518.7589 37.03951
519.2410 41.17458
519.7231 45.31299
520.2053 49.72530
520.6874 54.43198
521.1695 59.32277
521.6516 64.35428
522.1337 69.62151
522.6158 74.74103
523.0980 80.07255
523.5801 86.71027
524.0622 95.13559
524.5443 104.8590
525.0264 115.9463
525.5085 128.2217
525.9907 140.1969
526.4728 151.6476
526.9549 162.0946
527.4370 170.6932
527.9191 177.3911
528.4012 183.2699
528.8834 187.5034
529.3655 191.7509
529.8476 196.3909
530.3297 201.9927
530.8118 209.7756
531.2939 220.4280
531.7761 233.4267
532.2582 247.7193
532.7403 265.4270
533.2224 280.3795
533.7045 295.9135
534.1866 306.0736
534.6688 309.2523
535.1509 304.1175
535.6330 287.7962
536.1151 256.7494
536.5972 215.3914
537.0793 173.4834
537.5615 129.5337
538.0436 92.08503
538.5257 64.64783
539.0078 44.80416
539.4899 31.54004
539.9720 24.47523
540.4542 19.69024
540.9363 15.98904
541.4184 13.13342
541.9005 10.90237
542.3826 9.239655
542.8647 7.884300
543.3469 6.630402
543.8290 5.530418
544.3111 4.759819
544.7932 4.460281
545.2753 4.096497
545.7574 3.515083
546.2396 2.815704
546.7217 2.075111
547.2038 1.357674
547.6859 1.039413
548.1680 1.450569
548.6501 2.371498
549.1323 2.822098
549.6144 2.612114
550.0965 2.231590
550.5786 1.407372
551.0607 0.7042540
551.5428 0.6937940
552.0250 1.287933
552.5071 1.797569
552.9892 1.652168
553.4713 1.079559
553.9534 0.7033920
554.4355 0.5185850
554.9177 0.5336230
555.3998 0.9834900
555.8819 1.465645
556.3640 1.398994
556.8461 0.7056500
557.3282 4.2389002E-02
557.8104 0.6516720
558.2925 1.020706
558.7746 0.1865230
559.2567 1.639084
559.7388 2.737015
560.2209 1.912834
560.7031 0.1096500
561.1852 1.018219
561.6673 0.4383540
562.1494 1.261795
562.6315 0.7682570
563.1136 0.1039200
563.5958 0.2798610
564.0779 1.187347
564.5600 2.018814
565.0421 2.211510
565.5242 1.926392
566.0063 1.634102
566.4885 1.214195
566.9706 1.153763
567.4527 2.288643
567.9348 3.276047
568.4169 2.845016
568.8990 1.183861
569.3812 5.9532002E-02
569.8633 0.3800430
570.3454 1.534622
570.8275 2.036148
571.3096 1.904037
571.7917 1.592628
572.2739 1.228493
572.7560 0.8756260
573.2381 0.6169890
573.7202 0.3965530
574.2023 0.4799800
574.6844 1.498932
575.1666 2.296837
575.6487 1.646576
576.1308 0.1079940
576.6129 0.7411420
577.0950 5.9586000E-02
577.5771 1.488029
578.0593 2.468781
578.5414 2.754303
579.0235 2.833206
579.5056 2.785843
579.9877 2.468925
580.4698 1.404411
580.9520 3.6979999E-02
581.4341 0.5842510
581.9162 0.2520290
582.3983 1.528542
582.8804 1.736923
583.3625 1.001579
583.8447 0.7281490
584.3268 1.407196
584.8089 2.250496
585.2910 2.341980
585.7731 1.779762
586.2552 1.553139
586.7374 2.258781
587.2195 2.784309
587.7016 2.117981
588.1837 1.021507
588.6658 0.9320910
589.1479 2.254272
589.6301 3.837669
590.1122 4.194038
590.5943 3.150459
591.0764 2.536636
591.5585 3.102577
592.0406 3.215042
592.5228 1.900932
593.0049 0.2070770
593.4870 0.5493090
593.9691 4.4914000E-02
594.4512 0.8117520
594.9333 1.160133
595.4155 1.142029
595.8976 1.426315
596.3797 2.147522
596.8618 2.728813
597.3439 2.802773
597.8260 2.505157
598.3082 2.166023
598.7903 1.640938
599.2724 1.433342
599.7545 2.143394
600.2366 2.982780
600.7188 2.896210
601.2009 1.981056
601.6830 1.289467
602.1651 1.577705
602.6472 2.549446
603.1293 3.118355
603.6115 3.183113
604.0936 3.008507
604.5757 2.199928
605.0578 1.543510
605.5399 1.736382
606.0220 2.543564
606.5042 3.129173
606.9863 2.912491
607.4684 2.297829
607.9505 2.005753
608.4326 2.078857
608.9147 2.148430
609.3969 2.169106
609.8790 2.072510
610.3611 1.642647
610.8432 0.9241180
611.3253 0.5750120
611.8074 0.9327090
612.2896 1.395882
612.7717 1.729958
613.2538 1.952614
613.7359 1.987083
614.2180 1.854431
614.7001 1.765892
615.1823 2.004898
615.6644 2.570862
616.1465 2.843735
616.6286 2.714874
617.1107 2.584625
617.5928 2.570122
618.0750 2.557838
618.5571 2.383011
619.0392 1.996567
619.5213 1.666618
620.0034 1.436394
620.4855 1.263649
620.9677 1.017448
621.4498 0.7330090
621.9319 0.6308980
622.4140 0.8438110
622.8961 1.238220
623.3782 1.669373
623.8604 2.255409
624.3425 2.510658
624.8246 2.185303
625.3067 1.709251
625.7888 1.170975
626.2709 0.7574770
626.7531 0.8864290
627.2352 1.741142
627.7173 2.806648
628.1994 2.987083
628.6815 2.045471
629.1636 1.546265
629.6458 1.952991
630.1279 2.307648
630.6100 1.934380
631.0921 1.232376
631.5742 0.9679530
632.0563 1.491112
632.5385 2.010017
633.0206 1.822315
633.5027 1.248390
633.9848 0.8423230
634.4669 0.6592370
634.9490 0.8862720
635.4312 1.692425
635.9133 2.868912
636.3954 3.444389
636.8775 2.779987
637.3596 2.315487
637.8417 2.320198
638.3239 2.355503
638.8060 1.984291
639.2881 1.307949
639.7702 0.8913000
640.2523 1.017391
640.7344 1.442177
641.2166 1.790512
641.6987 2.073372
642.1808 2.029099
642.6629 1.393688
643.1450 0.7552260
643.6271 0.8342020
644.1093 1.392082
644.5914 1.537041
645.0735 0.5520740
645.5556 0.1888960
646.0377 0.2573740
646.5198 1.211636
647.0020 1.599480
647.4841 1.276394
647.9662 1.027271
648.4483 1.630547
648.9304 2.885033
649.4125 3.335499
649.8947 2.534142
650.3768 1.753185
650.8589 0.9588890
651.3410 0.4074250
651.8231 0.5835190
652.3052 1.326694
652.7874 1.870796
653.2695 1.742180
653.7516 1.321205
654.2337 0.9975700
654.7158 0.7727170
655.1979 0.6518710
655.6801 0.6299210
656.1622 0.7722850
656.6443 1.250065
657.1264 2.110340
657.6085 2.347622
658.0906 1.154789
658.5728 0.4338800
659.0549 1.058437
659.5370 2.115551
660.0191 2.704945
660.5012 2.676075
660.9833 2.369095
661.4655 2.017971
661.9476 1.627430
662.4297 1.218182
662.9118 0.7886350
663.3939 0.3112830
663.8760 0.4197240
664.3582 0.9636610
664.8403 0.5920720
665.3224 0.6073270
665.8045 1.497742
666.2866 1.786156
666.7687 1.841679
667.2509 1.680492
667.7330 1.483646
668.2151 1.681816
668.6972 2.315662
669.1793 2.716007
