#Shining_header
#Data type:raman_database
#CAS:Not entered
#Material scientific name:Babingtonite
#Manufacturer:Not entered
#Laser model:Not entered
#Spectrometer model:Not entered
#Testing unit:Not entered
#Test time:Not entered
#Other experimental details:Not entered
#Shining_data
102.6270 0.0000000E+00
103.1091 1.6193001E-02
103.5912 2.6518000E-02
104.0734 0.4922730
104.5555 1.022362
105.0376 1.489653
105.5197 1.872087
106.0018 2.158504
106.4839 2.337265
106.9661 2.395546
107.4482 2.393034
107.9303 2.215363
108.4124 2.064539
108.8945 2.064175
109.3766 2.226374
109.8588 2.476633
110.3409 2.747946
110.8230 3.053558
111.3051 3.303679
111.7872 3.456089
112.2693 3.548357
112.7515 3.629965
113.2336 3.700657
113.7157 3.789728
114.1978 3.914537
114.6799 4.069349
115.1620 4.291300
115.6442 4.653324
116.1263 5.147135
116.6084 5.559332
117.0905 5.792530
117.5726 5.948391
118.0547 6.076385
118.5369 6.199522
119.0190 6.343403
119.5011 6.610134
119.9832 7.025570
120.4653 7.537851
120.9474 8.150038
121.4296 8.832188
121.9117 9.559830
122.3938 10.32215
122.8759 11.12811
123.3580 12.01652
123.8401 12.99803
124.3223 14.06187
124.8044 15.44394
125.2865 16.87916
125.7686 17.99601
126.2507 18.58301
126.7328 18.63988
127.2150 18.21196
127.6971 17.59760
128.1792 16.37782
128.6613 13.96500
129.1434 10.56903
129.6255 7.295610
130.1077 4.956247
130.5898 3.574743
131.0719 2.433552
131.5540 1.538628
132.0361 0.8477690
132.5182 0.3302100
133.0004 4.4669998E-03
133.4825 0.2146280
133.9646 0.3000030
134.4467 0.2977680
134.9288 0.2680720
135.4109 0.2350060
135.8931 0.1942880
136.3752 0.1347620
136.8573 7.3486000E-02
137.3394 3.7601002E-02
137.8215 0.2299400
138.3036 0.4893150
138.7858 0.7707940
139.2679 1.043997
139.7500 1.308744
140.2321 1.566526
140.7142 1.818855
141.1963 2.062906
141.6785 2.354891
142.1606 2.669544
142.6427 2.904606
143.1248 2.919479
143.6069 2.631220
144.0890 2.342997
144.5712 2.067209
145.0533 1.841398
145.5354 1.597403
146.0175 1.374228
146.4996 1.188402
146.9817 1.165955
147.4639 1.370996
147.9460 1.605124
148.4281 1.883125
148.9102 2.186390
149.3923 2.469719
149.8744 2.734997
150.3566 2.986490
150.8387 3.247368
151.3208 3.555685
151.8029 3.797344
152.2850 3.909304
152.7671 3.918283
153.2493 3.912643
153.7314 3.925173
154.2135 3.965427
154.6956 4.029272
155.1777 4.112398
155.6598 4.234835
156.1420 4.426258
156.6241 4.689060
157.1062 4.955130
157.5883 5.219095
158.0704 5.458672
158.5525 5.635180
159.0347 5.721474
159.5168 5.791731
159.9989 5.979954
160.4810 6.364433
160.9631 6.694729
161.4452 6.902756
161.9274 7.036709
162.4095 7.119267
162.8916 7.150248
163.3737 7.169401
163.8558 7.310003
164.3379 7.668535
164.8201 8.034544
165.3022 8.440161
165.7843 8.816441
166.2664 9.054462
166.7485 9.078043
167.2306 8.925606
167.7128 8.928757
168.1949 9.222630
168.6770 9.526688
169.1591 9.857920
169.6412 10.15557
170.1233 10.31132
170.6055 10.24207
171.0876 9.948433
171.5697 9.627113
172.0518 9.217163
172.5339 8.840815
173.0160 8.552881
173.4982 8.351238
173.9803 8.218077
174.4624 8.182472
174.9445 8.221720
175.4266 8.080097
175.9087 7.678549
176.3909 7.150389
176.8730 6.590738
177.3551 6.004032
177.8372 5.389465
178.3193 4.720127
178.8014 4.017883
179.2836 3.372252
179.7657 2.820053
180.2478 2.327265
180.7299 1.822165
181.2120 1.277206
181.6941 0.8047370
182.1763 0.5240780
182.6584 0.3639220
183.1405 0.2055050
183.6226 5.1424000E-02
184.1047 0.3498480
184.5868 0.4839420
185.0690 0.3394050
185.5511 0.1943970
186.0332 0.2033390
186.5153 0.3071170
186.9974 0.3902130
187.4795 0.3635350
187.9617 0.2368660
188.4438 0.1551150
188.9259 0.2778970
189.4080 0.1522850
189.8901 7.3279999E-02
190.3722 3.8359001E-02
190.8544 0.1786900
191.3365 9.8324001E-02
191.8186 0.1118140
192.3007 0.1293160
192.7828 2.0145001E-02
193.2649 0.1422180
193.7471 3.3206999E-02
194.2292 1.4639000E-02
194.7113 4.7104001E-02
195.1934 6.6846997E-02
195.6755 6.9404997E-02
196.1576 0.1591280
196.6398 0.2048450
197.1219 7.5493000E-02
197.6040 0.1716100
198.0861 0.1770020
198.5682 0.1784340
199.0503 0.3055670
199.5325 0.2003840
200.0146 0.3250200
200.4967 0.3574920
200.9788 0.4315610
201.4609 0.4138260
201.9430 0.4235400
202.4252 0.5236680
202.9073 0.5719620
203.3894 0.9232230
203.8715 1.140696
204.3536 1.100008
204.8357 0.9825270
205.3179 0.9430940
205.8000 1.000839
206.2821 1.138247
206.7642 1.383274
207.2463 1.715963
207.7284 2.001835
208.2106 2.168552
208.6927 2.291014
209.1748 2.480906
209.6569 2.764332
210.1390 3.059107
210.6211 3.272621
211.1033 3.439030
211.5854 3.646891
212.0675 3.982716
212.5496 4.377405
213.0317 4.672319
213.5138 4.833952
213.9960 4.945927
214.4781 5.076221
214.9602 5.203127
215.4423 5.276964
215.9244 5.260246
216.4065 5.168554
216.8886 5.055016
217.3708 4.886288
217.8529 4.748238
218.3350 4.665201
218.8171 4.635582
219.2992 4.657759
219.7813 4.742838
220.2635 4.881235
220.7456 5.001986
221.2277 5.037405
221.7098 5.143436
222.1919 5.444717
222.6740 5.841595
223.1562 6.156900
223.6383 6.246370
224.1204 6.135960
224.6025 6.148123
225.0846 6.409023
225.5667 6.672979
226.0489 6.907682
226.5310 7.104498
227.0131 7.243866
227.4952 7.297947
227.9773 7.279701
228.4594 7.416170
228.9416 7.868862
229.4237 8.314528
229.9058 8.691631
230.3879 9.007565
230.8700 9.296766
231.3521 9.591503
231.8343 9.882427
232.3164 10.00570
232.7985 9.928930
233.2806 9.739796
233.7627 9.457043
234.2448 9.074928
234.7270 8.562138
235.2091 7.885242
235.6912 7.069878
236.1733 6.347433
236.6554 5.692698
237.1375 5.122177
237.6197 4.667965
238.1018 4.309155
238.5839 3.988476
239.0660 3.668058
239.5481 3.353691
240.0302 3.104725
240.5124 2.918806
240.9945 2.786808
241.4766 2.712360
241.9587 2.675699
242.4408 2.655090
242.9229 2.651966
243.4051 2.671930
243.8872 2.722012
244.3693 2.803646
244.8514 2.893402
245.3335 2.950916
245.8156 3.013525
246.2978 3.194265
246.7799 3.578083
247.2620 4.059763
247.7441 4.376526
248.2262 4.491022
248.7083 4.530590
249.1905 4.529930
249.6726 4.507090
250.1547 4.559668
250.6368 4.765676
251.1189 5.020201
251.6010 5.181671
252.0832 5.221478
252.5653 5.283714
253.0474 5.471554
253.5295 5.764807
254.0116 5.994116
254.4937 6.053999
254.9759 6.097075
255.4580 6.324993
255.9401 6.739529
256.4222 7.164738
256.9043 7.483368
257.3864 7.711157
257.8686 7.962330
258.3507 8.234715
258.8328 8.565266
259.3149 8.988214
259.7970 9.494637
260.2791 10.00774
260.7613 10.47015
261.2434 10.89374
261.7255 11.34200
262.2076 11.83939
262.6897 12.33411
263.1718 12.80083
263.6540 13.24100
264.1361 13.65944
264.6182 14.06934
265.1003 14.46234
265.5824 14.81520
266.0645 15.18114
266.5467 15.41189
267.0288 15.43824
267.5109 15.29551
267.9930 15.06447
268.4751 14.81913
268.9572 14.52706
269.4394 14.01522
269.9215 13.14899
270.4036 12.24942
270.8857 11.39413
271.3678 10.60078
271.8499 9.906485
272.3321 9.358297
272.8142 8.900593
273.2963 8.325466
273.7784 7.476154
274.2605 6.786425
274.7426 6.430243
275.2248 6.256048
275.7069 6.099403
276.1890 5.887617
276.6711 5.633488
277.1532 5.355499
277.6353 4.974012
278.1175 4.726336
278.5996 4.748007
279.0817 4.855181
279.5638 4.865011
280.0459 4.709591
280.5280 4.473358
281.0102 4.327986
281.4923 4.353388
281.9744 4.300371
282.4565 4.106031
282.9386 3.859020
283.4207 3.624676
283.9029 3.420942
284.3850 3.224966
284.8671 3.002298
285.3492 2.746590
285.8313 2.471815
286.3134 2.170704
286.7956 1.857292
287.2777 1.524691
287.7598 1.180824
288.2419 0.8525490
288.7240 0.5679280
289.2061 0.3303390
289.6883 0.1446480
290.1704 2.4669999E-02
290.6525 6.0559999E-02
291.1346 0.1090680
291.6167 0.1313510
292.0988 0.1529330
292.5810 0.2020440
293.0631 0.2848220
293.5452 0.3282590
294.0273 0.2814390
294.5094 0.2462600
294.9915 0.2813090
295.4737 0.3565500
295.9558 0.4029460
296.4379 0.3693680
296.9200 0.2596550
297.4021 0.1382980
297.8842 5.5930998E-02
298.3664 0.1959440
298.8485 0.1874620
299.3306 0.1201230
299.8127 0.1324310
300.2948 0.3046040
300.7769 0.6002460
301.2591 0.8735200
301.7412 1.187967
302.2233 1.390738
302.7054 1.349913
303.1875 1.236843
303.6696 1.252060
304.1518 1.475359
304.6339 1.814598
305.1160 2.075607
305.5981 2.214718
306.0802 2.327803
306.5623 2.408770
307.0445 2.471941
307.5266 2.516891
308.0087 2.548473
308.4908 2.591496
308.9729 2.682913
309.4550 2.840103
309.9372 3.005970
310.4193 3.150106
310.9014 3.356321
311.3835 3.506393
311.8656 3.602779
312.3477 3.514421
312.8299 3.641897
313.3120 3.668966
313.7941 3.682409
314.2762 3.811872
314.7583 3.699301
315.2404 3.806902
315.7226 3.812710
316.2047 3.850611
316.6868 3.787539
317.1689 3.742626
317.6510 3.778824
318.1331 3.754654
318.6153 3.641285
319.0974 3.622124
319.5795 3.406878
320.0616 3.344976
320.5437 3.343582
321.0258 3.184950
321.5080 3.117582
321.9901 2.906403
322.4722 2.739664
322.9543 2.484007
323.4364 2.211088
323.9185 1.991056
324.4007 1.848713
324.8828 1.754574
325.3649 1.659498
325.8470 1.555147
326.3291 1.467056
326.8112 1.406239
327.2934 1.350815
327.7755 1.276245
328.2576 1.185080
328.7397 1.109213
329.2218 1.092283
329.7039 1.161570
330.1861 1.153635
330.6682 0.9864960
331.1503 0.8307320
331.6324 0.7742900
332.1145 0.7935470
332.5966 0.8083820
333.0788 0.7531570
333.5609 0.6350150
334.0430 0.5769650
334.5251 0.6374950
335.0072 0.6977580
335.4893 0.7525670
335.9715 0.7888030
336.4536 0.7885880
336.9357 0.7424890
337.4178 0.6607590
337.8999 0.5752910
338.3820 0.4820500
338.8642 0.3900390
339.3463 0.2969820
339.8284 0.2065330
340.3105 0.1239240
340.7926 4.9561001E-02
341.2747 2.1442000E-02
341.7568 0.1009860
342.2390 0.2070120
342.7211 0.2744560
343.2032 0.2917350
343.6853 0.2855240
344.1674 0.2685490
344.6495 0.2420100
345.1317 0.2001320
345.6138 0.1338270
346.0959 4.0831000E-02
346.5780 3.9138999E-02
347.0601 8.2455002E-02
347.5422 0.1356580
348.0244 0.2256580
348.5065 0.3308660
348.9886 0.4164680
349.4707 0.4603980
349.9528 0.4717830
350.4349 0.4795420
350.9171 0.4348240
351.3992 0.4675350
351.8813 0.6447890
352.3634 0.8851010
352.8455 1.117607
353.3276 1.316526
353.8098 1.472986
354.2919 1.558475
354.7740 1.539299
355.2561 1.566198
355.7382 1.728743
356.2203 1.880033
356.7025 1.923033
357.1846 1.858953
357.6667 1.768251
358.1488 1.730879
358.6309 1.749916
359.1130 1.744741
359.5952 1.680206
360.0773 1.630898
360.5594 1.645355
361.0415 1.696814
361.5236 1.723595
362.0057 1.668657
362.4879 1.578890
362.9700 1.606171
363.4521 1.796270
363.9342 2.005201
364.4163 2.213148
364.8984 2.399240
365.3806 2.530382
365.8627 2.591084
366.3448 2.633198
366.8269 2.716320
367.3090 2.841127
367.7911 3.005512
368.2733 3.255661
368.7554 3.507996
369.2375 3.688770
369.7196 3.800898
370.2017 3.919827
370.6838 4.132193
371.1660 4.407047
371.6481 4.576809
372.1302 4.564219
372.6123 4.564552
373.0944 4.736282
373.5765 5.017103
374.0587 5.273619
374.5408 5.436655
375.0229 5.559912
375.5050 5.744528
375.9871 6.004784
376.4692 6.195217
376.9514 6.196758
377.4335 6.105164
377.9156 6.058153
378.3977 6.069712
378.8798 6.120899
379.3619 6.210983
379.8441 6.332808
380.3262 6.454821
380.8083 6.567049
381.2904 6.680025
381.7725 6.814301
382.2546 6.968912
382.7368 7.106770
383.2189 7.200065
383.7010 7.276848
384.1831 7.374403
384.6652 7.497452
385.1473 7.641500
385.6295 7.832502
386.1116 8.046006
386.5937 8.155004
387.0758 8.066397
387.5579 7.962956
388.0400 7.980253
388.5222 8.077121
389.0043 8.098701
389.4864 7.958158
389.9685 7.739477
390.4506 7.648771
390.9327 7.720613
391.4149 7.800293
391.8970 7.867217
392.3791 7.910124
392.8612 7.894808
393.3433 7.819447
393.8254 7.759058
394.3076 7.798489
394.7897 7.952296
395.2718 8.109575
395.7539 8.308197
396.2360 8.480558
396.7181 8.568146
397.2003 8.597852
397.6824 8.650442
398.1645 8.778541
398.6466 8.955032
399.1287 9.080137
399.6108 9.137927
400.0930 9.179287
400.5751 9.222762
401.0572 9.249808
401.5393 9.262706
402.0214 9.254639
402.5035 9.170720
402.9857 8.916104
403.4678 8.417790
403.9499 7.961384
404.4320 7.545779
404.9141 7.159729
405.3962 6.821486
405.8784 6.511063
406.3605 6.181007
406.8426 5.798893
407.3247 5.366784
407.8068 4.911593
408.2889 4.395630
408.7711 3.916607
409.2532 3.451752
409.7353 3.050295
410.2174 2.787579
410.6995 2.691107
411.1816 2.660725
411.6638 2.537849
412.1459 2.294596
412.6280 2.113270
413.1101 2.047278
413.5922 2.029666
414.0743 2.028453
414.5565 2.043769
415.0386 2.088093
415.5207 2.178552
416.0028 2.305138
416.4849 2.436039
416.9670 2.578934
417.4492 2.706822
417.9313 2.787494
418.4134 2.850729
418.8955 2.939975
419.3776 3.080582
419.8597 3.214558
420.3419 3.273774
420.8240 3.266960
421.3061 3.272903
421.7882 3.306274
422.2703 3.372061
422.7524 3.475045
423.2346 3.613742
423.7167 3.777526
424.1988 4.012163
424.6809 4.247225
425.1630 4.365751
425.6451 4.355546
426.1273 4.341393
426.6094 4.411185
427.0915 4.555723
427.5736 4.698914
428.0557 4.816822
428.5378 4.958519
429.0200 5.181266
429.5021 5.439909
429.9842 5.629869
430.4663 5.709297
430.9484 5.743917
431.4305 5.846680
431.9127 6.074855
432.3948 6.227875
432.8769 6.307090
433.3590 6.308081
433.8411 6.223953
434.3232 6.057312
434.8054 5.809366
435.2875 5.473083
435.7696 5.059481
436.2517 4.676836
436.7338 4.377708
437.2159 4.046648
437.6981 3.651178
438.1802 3.222772
438.6623 2.774017
439.1444 2.316504
439.6265 1.894493
440.1086 1.595454
440.5908 1.482258
441.0729 1.285590
441.5550 0.8614350
442.0371 0.4836310
442.5192 0.3009560
443.0013 0.2659050
443.4835 0.2414420
443.9656 0.1405010
444.4477 1.1821000E-02
444.9298 0.1378430
445.4119 0.2427340
445.8940 0.3088280
446.3762 0.2617740
446.8583 0.2126820
447.3404 0.2870620
447.8225 0.5115700
448.3046 0.7228350
448.7867 0.7630000
449.2689 0.6603060
449.7510 0.5626890
450.2331 0.4796460
450.7152 0.4234440
451.1973 0.4441950
451.6794 0.5035070
452.1616 0.4927120
452.6437 0.3090230
453.1258 0.1020950
453.6079 2.4906000E-02
454.0900 6.0766000E-02
454.5721 0.1127520
455.0543 0.1607010
455.5364 0.1743760
456.0185 6.1604001E-02
456.5006 0.2247050
456.9827 0.4295730
457.4648 0.4352800
457.9470 0.3649780
458.4291 0.3403050
458.9112 0.3784640
459.3933 0.4509360
459.8754 0.5410720
460.3575 0.6477510
460.8397 0.7222710
461.3218 0.7299910
461.8039 0.7518590
462.2860 0.8175310
462.7681 0.9069240
463.2502 0.9953700
463.7324 1.073489
464.2145 1.141230
464.6966 1.198004
465.1787 1.241570
465.6608 1.279760
466.1429 1.291203
466.6251 1.317678
467.1072 1.388767
467.5893 1.490211
468.0714 1.582584
468.5535 1.634872
469.0356 1.674084
469.5178 1.788888
469.9999 2.016554
470.4820 2.221463
470.9641 2.371516
471.4462 2.484443
471.9283 2.562364
472.4105 2.607798
472.8926 2.643336
473.3747 2.674889
473.8568 2.709216
474.3389 2.780778
474.8210 2.909036
475.3032 3.022509
475.7853 3.044569
476.2674 3.022774
476.7495 3.056895
477.2316 3.216174
477.7137 3.351091
478.1959 3.331605
478.6780 3.203658
479.1601 3.089208
479.6422 3.018906
480.1243 2.999804
480.6064 3.059031
481.0886 3.215318
481.5707 3.320324
482.0528 3.342220
482.5349 3.331048
483.0170 3.308836
483.4991 3.280746
483.9813 3.251887
484.4634 3.224450
484.9455 3.199778
485.4276 3.181777
485.9097 3.177204
486.3918 3.169861
486.8740 3.144695
487.3561 3.127706
487.8382 3.127780
488.3203 3.152550
488.8024 3.221840
489.2845 3.367771
489.7667 3.576797
490.2488 3.706411
490.7309 3.704563
491.2130 3.706771
491.6951 3.723970
492.1772 3.776167
492.6594 3.896962
493.1415 4.094629
493.6236 4.310240
494.1057 4.492216
494.5878 4.641855
495.0699 4.759647
495.5521 4.831294
496.0342 4.898927
496.5163 5.005826
496.9984 5.131963
497.4805 5.229018
497.9626 5.268681
498.4448 5.295184
498.9269 5.367173
499.4090 5.460953
499.8911 5.485331
500.3732 5.401220
500.8553 5.257406
501.3375 5.121626
501.8196 4.998888
502.3017 4.836814
502.7838 4.623531
503.2659 4.377934
503.7480 4.097872
504.2302 3.803671
504.7123 3.520321
505.1944 3.252278
505.6765 2.995764
506.1586 2.771752
506.6407 2.664463
507.1228 2.487144
507.6049 2.163264
508.0871 1.829614
508.5692 1.569736
509.0513 1.384960
509.5334 1.242422
510.0155 1.132508
510.4977 1.056599
510.9798 0.9610140
511.4619 0.7931100
511.9440 0.6916610
512.4261 0.7559260
512.9083 0.8740310
513.3904 0.9615510
513.8725 1.012465
514.3546 1.039438
514.8367 1.009836
515.3188 0.9503640
515.8010 0.9463050
516.2831 1.011333
516.7652 1.104072
517.2473 1.201116
517.7294 1.304542
518.2115 1.417828
518.6937 1.539998
519.1758 1.672490
519.6579 1.801963
520.1400 1.946260
520.6221 2.157359
521.1042 2.445551
521.5864 2.718356
522.0685 2.870416
522.5506 2.888058
523.0327 2.929174
523.5148 2.981075
523.9969 3.066809
524.4791 3.226338
524.9612 3.412472
525.4433 3.548201
525.9254 3.608584
526.4075 3.658572
526.8896 3.805255
527.3718 4.074475
527.8539 4.304931
528.3360 4.496833
528.8181 4.641289
529.3002 4.697192
529.7823 4.710992
530.2645 4.776278
530.7466 4.949943
531.2287 5.138141
531.7108 5.202079
532.1929 5.151333
532.6750 5.137276
533.1572 5.212043
533.6393 5.306271
534.1214 5.334513
534.6035 5.309233
535.0856 5.313555
535.5677 5.422831
536.0499 5.516727
536.5320 5.460581
537.0141 5.309144
537.4962 5.250824
537.9783 5.374852
538.4604 5.563744
538.9426 5.606199
539.4247 5.422665
539.9068 5.291697
540.3889 5.228332
540.8710 5.199065
541.3531 5.213366
541.8353 5.245176
542.3174 5.240808
542.7995 5.168926
543.2816 5.061362
543.7637 4.998405
544.2458 5.008978
544.7280 4.965356
545.2101 4.828696
545.6922 4.648855
546.1743 4.443741
546.6564 4.221219
547.1385 3.992852
547.6207 3.750775
548.1028 3.510195
548.5849 3.290009
549.0670 3.082993
549.5491 2.903354
550.0313 2.772370
550.5134 2.675170
550.9955 2.576885
551.4776 2.468387
551.9597 2.384257
552.4418 2.366847
552.9240 2.360177
553.4061 2.284773
553.8882 2.172567
554.3703 2.142810
554.8524 2.262058
555.3345 2.458985
555.8167 2.564844
556.2988 2.488956
556.7809 2.494321
557.2630 2.612653
557.7451 2.789475
558.2272 3.012863
558.7094 3.256108
559.1915 3.479083
559.6736 3.659734
560.1557 3.823868
560.6378 4.022490
561.1199 4.259720
561.6021 4.494347
562.0842 4.701448
562.5663 4.910604
563.0484 5.167915
563.5305 5.459950
564.0126 5.713569
564.4948 5.849456
564.9769 5.974065
565.4590 6.200405
565.9411 6.512568
566.4232 6.844561
566.9053 7.178247
567.3875 7.495996
567.8696 7.769903
568.3517 7.984797
568.8338 8.205524
569.3159 8.409390
569.7980 8.627834
570.2802 8.890948
570.7623 9.179337
571.2444 9.459791
571.7265 9.715619
572.2086 9.953862
572.6907 10.18954
573.1729 10.43573
573.6550 10.63048
574.1371 10.72247
574.6192 10.81304
575.1013 10.96943
575.5834 11.15552
576.0656 11.29892
576.5477 11.37597
577.0298 11.39330
577.5119 11.35046
577.9940 11.25201
578.4761 11.13235
578.9583 11.01603
579.4404 10.82289
579.9225 10.44614
580.4046 9.894114
580.8867 9.395243
581.3688 8.986940
581.8510 8.599694
582.3331 8.211367
582.8152 7.821743
583.2973 7.429626
583.7794 7.036337
584.2615 6.626960
584.7437 6.180900
585.2258 5.694160
585.7079 5.243809
586.1900 4.840892
586.6721 4.457262
587.1542 4.063833
587.6363 3.696267
588.1184 3.405953
588.6005 3.201250
589.0826 3.019229
589.5648 2.799777
590.0469 2.555765
590.5290 2.333343
591.0111 2.133241
591.4932 1.956685
591.9753 1.802849
592.4575 1.673961
592.9396 1.575841
593.4217 1.525578
593.9038 1.458570
594.3859 1.348741
594.8680 1.216246
595.3502 1.071040
595.8323 0.9219800
596.3144 0.7901040
596.7965 0.6909430
597.2786 0.6215690
597.7607 0.5746550
598.2429 0.5796980
598.7250 0.5525020
599.2071 0.4745680
599.6892 0.3787250
600.1713 0.2718250
600.6534 0.1642550
601.1356 7.7055998E-02
601.6177 2.4411000E-02
602.0998 3.2090000E-03
602.5819 1.2162000E-02
603.0640 2.4490000E-03
603.5461 2.1403000E-02
604.0283 9.5518000E-02
604.5104 0.1806430
604.9925 0.2365260
605.4746 0.2646170
605.9567 0.2500890
606.4388 0.1224670
606.9210 2.0513000E-02
607.4031 6.2270999E-02
607.8852 0.1798170
608.3673 0.2345500
608.8494 0.1851990
609.3315 0.1051910
609.8137 8.9313000E-02
610.2958 0.1451540
610.7779 0.1859300
611.2600 0.2098090
611.7421 0.2194940
612.2242 0.2203330
612.7064 0.2051750
613.1885 0.1482050
613.6706 4.7720999E-02
614.1527 2.4765000E-02
614.6348 2.6402000E-02
615.1169 0.1532990
615.5991 0.1984640
616.0812 0.1449370
616.5633 9.2739999E-02
617.0454 9.6245997E-02
617.5275 0.1323800
618.0096 0.1535750
618.4918 0.1672420
618.9739 0.1472640
