#Shining_header
#Data type:raman_database
#CAS:Not entered
#Material scientific name:Steacyite
#Manufacturer:Not entered
#Laser model:Not entered
#Spectrometer model:Not entered
#Testing unit:Not entered
#Test time:Not entered
#Other experimental details:Not entered
#Shining_data
102.7704 0.0000000E+00
103.2525 0.6441800
103.7346 0.5168760
104.2167 1.7975001E-02
104.6988 6.8210000E-03
105.1810 0.4421540
105.6631 1.082245
106.1452 1.788010
106.6273 2.616516
107.1094 3.091080
107.5915 2.415710
108.0737 1.689255
108.5558 1.400482
109.0379 1.437149
109.5200 1.468307
110.0021 1.081421
110.4842 0.1603090
110.9664 7.5409003E-02
111.4485 0.7142030
111.9306 1.614197
112.4127 2.336166
112.8948 2.881821
113.3769 3.324829
113.8591 3.770447
114.3412 4.160416
114.8233 4.476273
115.3054 4.740509
115.7875 4.982361
116.2696 5.280029
116.7517 5.699860
117.2339 6.117828
117.7160 6.195206
118.1981 5.648575
118.6802 5.282471
119.1623 5.328735
119.6444 5.722351
120.1266 6.352829
120.6087 7.372162
121.0908 8.484650
121.5729 9.126144
122.0550 9.175369
122.5371 9.024429
123.0193 8.816116
123.5014 8.526779
123.9835 8.269882
124.4656 7.841751
124.9477 7.466278
125.4298 7.458008
125.9120 8.054871
126.3941 8.907211
126.8762 9.396271
127.3583 9.370773
127.8404 9.315643
128.3225 9.408096
128.8047 9.561295
129.2868 9.651474
129.7689 9.521790
130.2510 9.420288
130.7331 9.478027
131.2152 9.501068
131.6974 9.636459
132.1795 9.578094
132.6616 9.182678
133.1437 8.592575
133.6258 8.508911
134.1079 8.809616
134.5901 9.030716
135.0722 9.291763
135.5543 9.507126
136.0364 9.761963
136.5185 10.04437
137.0006 10.18298
137.4828 10.04036
137.9649 9.514679
138.4470 8.990906
138.9291 8.450027
139.4112 7.990158
139.8933 7.741135
140.3755 7.797195
140.8576 7.840424
141.3397 7.262512
141.8218 6.107437
142.3039 5.219421
142.7860 5.199661
143.2681 5.785934
143.7503 5.999237
144.2324 5.386688
144.7145 4.616486
145.1966 4.318390
145.6787 4.494751
146.1608 4.746338
146.6430 4.774918
147.1251 4.576141
147.6072 4.231232
148.0893 3.443710
148.5714 2.700058
149.0535 2.310501
149.5357 2.335739
150.0178 2.558029
150.4999 2.665558
150.9820 2.625381
151.4641 2.531204
151.9462 2.348953
152.4284 2.152328
152.9105 2.004578
153.3926 1.938797
153.8747 1.900375
154.3568 1.738602
154.8389 1.245789
155.3211 0.8770140
155.8032 0.8219600
156.2853 0.8520660
156.7674 0.6348270
157.2495 1.5853999E-02
157.7316 0.9341740
158.2138 1.390686
158.6959 0.8768310
159.1780 0.5424190
159.6601 0.7706760
160.1422 1.394470
160.6243 1.679779
161.1065 1.859100
161.5886 1.883636
162.0707 1.618988
162.5528 0.6607970
163.0349 0.1925200
163.5170 0.3417210
163.9991 0.1419680
164.4813 0.5531460
164.9634 0.3956760
165.4455 0.1372380
165.9276 0.5554500
166.4097 0.7343440
166.8918 0.8428040
167.3740 1.117371
167.8561 1.614700
168.3382 1.992920
168.8203 1.904724
169.3024 1.632187
169.7845 1.503265
170.2667 1.696625
170.7488 2.071564
171.2309 2.275772
171.7130 2.142105
172.1951 2.152351
172.6772 2.503815
173.1594 3.085823
173.6415 3.774986
174.1236 4.561852
174.6057 5.387947
175.0878 5.874939
175.5699 5.624695
176.0521 5.466019
176.5342 5.731079
177.0163 6.242119
177.4984 6.667183
177.9805 6.751381
178.4626 6.492836
178.9448 6.317055
179.4269 6.181763
179.9090 6.161163
180.3911 6.340851
180.8732 6.666702
181.3553 7.007263
181.8375 7.244629
182.3196 7.358238
182.8017 7.566536
183.2838 7.926498
183.7659 8.308189
184.2480 8.685608
184.7301 9.036697
185.2123 9.314842
185.6944 9.483170
186.1765 9.529099
186.6586 9.450630
187.1407 9.081833
187.6228 8.709366
188.1050 8.555618
188.5871 8.641434
189.0692 8.826683
189.5513 9.012520
190.0334 9.192848
190.5155 9.288368
190.9977 9.164078
191.4798 9.012520
191.9619 9.092323
192.4440 9.469231
192.9261 9.890877
193.4082 10.14339
193.8904 10.25620
194.3725 10.25159
194.8546 10.08289
195.3367 9.808472
195.8188 9.513664
196.3009 9.152229
196.7831 8.896469
197.2652 8.916542
197.7473 9.135696
198.2294 9.371910
198.7115 9.506783
199.1936 9.570099
199.6758 9.718201
200.1579 10.04018
200.6400 10.34123
201.1221 10.42061
201.6042 10.38277
202.0863 10.49272
202.5685 11.06769
203.0506 12.06527
203.5327 12.66621
204.0148 12.52100
204.4969 12.29991
204.9790 12.26879
205.4612 12.37080
205.9433 12.42526
206.4254 12.26896
206.9075 11.89013
207.3896 11.59967
207.8717 11.50514
208.3539 11.40987
208.8360 11.21550
209.3181 10.95790
209.8002 10.74404
210.2823 10.67900
210.7644 10.78370
211.2466 10.86003
211.7287 10.89835
212.2108 10.92012
212.6929 10.87904
213.1750 10.81236
213.6571 10.85480
214.1393 11.18125
214.6214 11.91039
215.1035 11.94173
215.5856 10.73153
216.0677 9.438828
216.5498 8.672943
217.0320 8.417435
217.5141 8.332031
217.9962 8.142502
218.4783 7.864784
218.9604 7.450989
219.4425 6.594849
219.9247 5.895599
220.4068 5.899384
220.8889 6.541718
221.3710 7.191116
221.8531 7.313370
222.3352 6.855591
222.8174 6.427490
223.2995 6.059525
223.7816 5.718323
224.2637 5.390030
224.7458 5.070755
225.2279 4.755814
225.7100 4.463837
226.1922 4.174728
226.6743 3.784134
227.1564 3.090500
227.6385 2.412277
228.1206 2.057617
228.6027 2.047485
229.0849 2.216873
229.5670 2.613449
230.0491 3.095154
230.5312 3.265015
231.0133 2.709976
231.4954 2.009064
231.9776 1.904510
232.4597 2.484573
232.9418 3.038910
233.4239 2.973511
233.9060 2.610245
234.3881 2.435043
234.8703 2.605042
235.3524 2.985489
235.8345 3.454880
236.3166 4.062195
236.7987 4.558670
237.2808 4.738419
237.7630 4.761780
238.2451 4.799942
238.7272 4.927643
239.2093 5.061035
239.6914 5.026459
240.1735 4.742371
240.6557 4.554367
241.1378 4.765182
241.6199 5.064041
242.1020 5.083527
242.5841 4.623596
243.0662 4.071213
243.5484 4.144684
244.0305 5.072327
244.5126 6.011536
244.9947 6.882553
245.4768 7.587158
245.9589 7.976212
246.4410 7.987976
246.9232 7.825760
247.4053 7.859207
247.8874 8.206070
248.3695 8.465652
248.8516 8.475891
249.3337 8.433350
249.8159 8.504166
250.2980 8.737732
250.7801 9.031448
251.2622 9.235916
251.7443 9.385590
252.2264 9.340164
252.7086 8.805649
253.1907 8.283371
253.6728 8.075516
254.1549 8.277573
254.6370 8.858902
255.1191 9.935349
255.6013 12.22780
256.0834 13.37723
256.5655 12.65480
257.0476 11.50626
257.5297 10.81396
258.0118 10.76505
258.4940 11.03629
258.9761 11.21249
259.4582 11.28838
259.9403 11.26752
260.4224 11.06180
260.9045 10.85422
261.3867 10.75453
261.8688 10.77287
262.3509 10.84354
262.8330 10.88812
263.3151 10.87767
263.7972 10.95561
264.2794 11.21213
264.7615 11.46364
265.2436 11.59822
265.7257 11.61998
266.2078 11.61400
266.6899 11.67323
267.1721 11.82715
267.6542 11.83525
268.1363 11.61281
268.6184 11.35443
269.1005 11.17331
269.5826 11.07262
270.0648 10.96130
270.5469 10.75264
271.0290 10.42366
271.5111 10.19077
271.9932 10.23517
272.4753 10.17876
272.9575 9.764542
273.4396 9.121338
273.9217 8.581650
274.4038 8.370850
274.8859 8.466812
275.3680 8.627243
275.8501 9.140991
276.3322 9.386032
276.8144 8.982025
277.2965 8.135406
277.7786 7.300735
278.2607 6.719162
278.7428 6.360535
279.2249 6.092743
279.7071 5.978622
280.1892 5.857330
280.6713 5.669891
281.1534 5.444839
281.6355 5.255936
282.1176 5.151917
282.5998 5.065811
283.0819 4.761856
283.5640 3.836655
284.0461 3.441803
284.5282 4.427658
285.0103 5.915482
285.4925 6.493866
285.9746 5.629028
286.4567 4.133179
286.9388 3.437302
287.4209 3.774414
287.9030 4.062820
288.3852 4.064117
288.8673 3.975571
289.3494 4.061081
289.8315 4.406937
290.3136 4.722198
290.7957 4.577591
291.2779 3.895599
291.7600 3.342468
292.2421 3.128540
292.7242 2.989227
293.2063 2.543564
293.6884 1.753769
294.1706 1.160324
294.6527 1.400055
295.1348 2.480164
295.6169 3.071945
296.0990 2.829956
296.5811 2.301849
297.0633 1.785110
297.5454 1.324478
298.0275 1.091980
298.5096 1.300049
298.9917 1.860535
299.4738 2.154129
299.9560 1.947998
300.4381 1.690796
300.9202 1.718201
301.4023 1.951889
301.8844 1.987991
302.3665 1.510696
302.8487 0.7705540
303.3308 0.5259400
303.8129 1.035172
304.2950 1.559860
304.7771 1.706970
305.2592 1.613937
305.7414 1.658676
306.2235 2.019760
306.7056 2.515335
307.1877 2.775757
307.6698 2.762344
308.1519 2.743210
308.6341 2.830841
309.1162 2.963120
309.5983 3.020477
310.0804 2.961792
310.5625 2.871002
311.0446 2.919571
311.5268 3.130615
312.0089 3.092789
312.4910 2.402252
312.9731 1.569351
313.4552 1.218933
313.9373 1.449234
314.4195 1.939743
314.9016 2.521271
315.3837 3.163071
315.8658 3.501404
316.3479 3.293640
316.8300 2.921387
317.3121 2.702820
317.7943 2.638489
318.2764 2.546432
318.7585 2.284668
319.2406 1.897491
319.7227 1.610214
320.2048 1.521835
320.6870 1.431839
321.1691 1.186661
321.6512 0.8379820
322.1333 0.5540920
322.6154 0.3978420
323.0975 0.3786770
323.5797 0.5522610
324.0618 1.078232
324.5439 1.431152
325.0260 1.378784
325.5081 1.035355
325.9902 0.5783540
326.4724 3.5202000E-02
326.9545 0.5097350
327.4366 0.9677280
327.9187 1.394470
328.4008 1.505341
328.8829 0.9254000
329.3651 0.1497800
329.8472 0.2384640
330.3293 0.1383970
330.8114 0.1878510
331.2935 0.5216220
331.7756 0.8636020
332.2578 1.166992
332.7399 1.505478
333.2220 1.748322
333.7041 1.768478
334.1862 1.581589
334.6683 1.312973
335.1505 1.016495
335.6326 0.7154080
336.1147 0.5605470
336.5968 0.6720730
337.0789 0.7814790
337.5610 0.7778020
338.0432 0.6850740
338.5253 0.5388180
339.0074 0.3318790
339.4895 0.1344150
339.9716 0.1675110
340.4537 0.5883180
340.9359 0.9161220
341.4180 1.052231
341.9001 1.048889
342.3822 0.9959720
342.8643 0.9200740
343.3464 0.7064970
343.8286 0.1160890
344.3107 1.196564
344.7928 1.768280
345.2749 0.8625180
345.7570 0.2874150
346.2391 0.6834410
346.7213 0.2872470
347.2034 0.2697450
347.6855 0.4155270
348.1676 0.1220090
348.6497 4.0725999E-02
349.1318 0.3760830
349.6140 0.6818850
350.0961 0.6517490
350.5782 0.4374850
351.0603 0.4254910
351.5424 0.8601680
352.0245 1.625610
352.5067 2.231155
352.9888 2.550797
353.4709 2.865921
353.9530 3.200760
354.4351 3.550583
354.9172 3.917099
355.3994 4.299026
355.8815 4.678574
356.3636 5.022034
356.8457 5.257309
357.3278 5.611008
357.8099 6.290924
358.2920 6.923767
358.7741 7.161850
359.2563 7.039078
359.7384 6.904221
360.2205 7.101929
360.7026 7.664352
361.1847 8.258179
361.6668 9.057022
362.1490 9.706131
362.6311 9.868790
363.1132 9.811752
363.5953 10.05725
364.0774 10.94611
364.5595 12.30887
365.0417 13.41911
365.5238 14.04431
366.0059 14.72072
366.4880 15.62820
366.9701 16.55258
367.4522 17.22253
367.9344 17.56679
368.4165 17.83403
368.8986 18.44540
369.3807 19.57536
369.8628 20.57391
370.3449 21.34428
370.8271 22.05426
371.3092 22.79785
371.7913 23.57135
372.2734 24.32639
372.7555 25.00253
373.2376 25.60291
373.7198 26.25368
374.2019 26.81648
374.6840 27.63042
375.1661 28.87888
375.6482 30.41687
376.1303 32.04088
376.6125 33.69344
377.0946 35.30293
377.5767 36.66797
378.0588 37.65306
378.5409 38.77739
379.0230 40.40274
379.5052 42.08865
379.9873 43.44582
380.4694 44.40051
380.9515 45.28777
381.4336 46.46118
381.9157 47.91556
382.3979 49.30698
382.8800 50.57513
383.3621 51.78448
383.8442 52.94290
384.3263 54.06491
384.8084 55.24615
385.2906 56.54817
385.7727 57.94254
386.2548 59.43323
386.7369 61.10367
387.2190 62.71925
387.7011 64.11319
388.1833 65.32973
388.6654 66.40305
389.1475 67.25673
389.6296 68.12045
390.1117 69.23817
390.5938 70.57890
391.0760 71.90070
391.5581 73.21257
392.0402 74.39052
392.5223 75.27199
393.0044 75.86494
393.4865 76.28259
393.9687 76.36389
394.4508 76.34070
394.9329 76.63937
395.4150 77.35004
395.8971 78.17268
396.3792 78.96263
396.8614 79.66904
397.3435 79.94836
397.8256 79.32930
398.3077 78.64307
398.7898 78.53693
399.2719 78.87314
399.7540 79.10896
400.2361 78.98927
400.7183 78.56763
401.2004 77.97672
401.6825 77.19159
402.1646 76.33717
402.6467 75.49002
403.1288 74.55341
403.6110 73.24016
404.0931 71.53459
404.5752 70.02448
405.0573 69.43285
405.5394 70.03970
406.0215 70.12804
406.5037 69.70705
406.9858 68.84109
407.4679 67.37981
407.9500 65.48976
408.4321 63.50691
408.9142 61.60464
409.3964 59.80446
409.8785 58.17838
410.3606 57.05356
410.8427 55.67430
411.3248 53.77046
411.8069 51.70145
412.2891 49.73921
412.7712 47.98112
413.2533 46.46301
413.7354 45.30261
414.2175 44.63693
414.6996 43.75404
415.1818 42.54460
415.6639 41.21631
416.1460 39.75734
416.6281 38.23424
417.1102 36.79402
417.5923 35.51271
418.0745 34.38470
418.5566 33.35687
419.0387 32.39038
419.5208 31.63379
420.0029 31.63617
420.4850 31.59508
420.9672 30.59702
421.4493 28.40175
421.9314 25.99739
422.4135 24.35437
422.8956 23.45050
423.3777 22.79736
423.8599 22.57304
424.3420 22.23917
424.8241 21.21944
425.3062 19.71725
425.7883 18.46677
426.2704 18.02901
426.7526 17.90315
427.2347 17.25291
427.7168 16.03114
428.1989 14.98270
428.6810 14.54300
429.1631 14.53185
429.6453 14.51854
430.1274 14.59264
430.6095 14.45638
431.0916 13.80452
431.5737 12.86299
432.0558 12.07098
432.5380 11.54286
433.0201 11.16293
433.5022 10.81799
433.9843 10.51237
434.4664 10.21191
434.9485 10.09036
435.4307 9.823578
435.9128 9.003174
436.3949 7.811279
436.8770 6.875488
437.3591 6.582443
437.8412 6.775864
438.3234 6.870621
438.8055 6.934875
439.2876 6.807938
439.7697 6.352783
440.2518 5.775284
440.7339 5.210098
441.2160 4.716980
441.6982 4.376266
442.1803 4.326553
442.6624 4.640625
443.1445 4.713455
443.6266 4.280151
444.1087 3.878326
444.5909 3.709442
445.0730 3.677856
445.5551 3.588181
446.0372 3.332123
446.5193 3.022964
447.0014 2.937836
447.4836 3.172531
447.9657 3.345963
448.4478 3.409042
448.9299 3.371796
449.4120 3.160797
449.8941 2.808258
450.3763 2.526672
450.8584 2.384460
451.3405 2.428802
451.8226 2.983444
452.3047 4.303574
452.7868 5.501236
453.2690 5.975021
453.7511 6.023682
454.2332 5.987030
454.7153 5.867752
455.1974 5.779831
455.6795 5.725571
456.1617 5.745453
456.6438 6.131012
457.1259 7.106857
457.6080 8.206421
458.0901 8.760635
458.5722 8.781143
459.0544 8.887009
459.5365 9.122742
460.0186 9.531891
460.5007 10.27956
460.9828 11.29022
461.4649 12.17607
461.9471 12.68385
462.4292 12.91185
462.9113 13.26617
463.3934 13.96925
463.8755 14.49934
464.3576 14.67278
464.8398 14.66330
465.3219 14.63464
465.8040 14.65746
466.2861 14.78180
466.7682 15.07233
467.2503 15.55173
467.7325 15.89844
468.2146 15.93922
468.6967 15.91867
469.1788 15.89291
469.6609 15.89232
470.1430 15.94766
470.6252 16.05560
471.1073 16.18053
471.5894 16.27637
472.0715 16.34813
472.5536 16.38652
473.0357 16.39297
473.5179 16.38823
474.0000 16.40018
474.4821 16.41156
474.9642 16.35432
475.4463 16.15465
475.9284 15.86136
476.4106 15.57092
476.8927 15.28638
477.3748 15.01363
477.8569 14.63864
478.3390 14.36560
478.8211 14.58310
479.3033 15.49361
479.7854 16.19035
480.2675 15.99673
480.7496 15.32602
481.2317 14.92142
481.7138 14.92012
482.1959 15.04036
482.6780 15.02527
483.1602 14.87831
483.6423 14.84911
484.1244 15.17482
484.6065 15.35590
485.0886 15.15279
485.5707 14.67368
486.0529 14.04678
486.5350 13.32184
487.0171 12.65530
487.4992 12.33687
487.9813 12.56670
488.4634 12.58707
488.9456 12.41824
489.4277 12.06212
489.9098 11.37271
490.3919 10.50421
490.8740 9.755768
491.3561 9.301712
491.8383 9.111679
492.3204 9.177139
492.8025 9.694016
493.2846 9.930099
493.7667 9.637909
494.2488 9.072418
494.7310 8.218033
495.2131 7.157318
495.6952 6.324265
496.1773 6.166977
496.6594 6.459534
497.1415 6.635757
497.6237 6.705109
498.1058 6.540100
498.5879 5.861038
499.0700 4.973480
499.5521 4.483963
500.0342 4.558655
500.5164 4.692673
500.9985 4.665176
501.4806 4.519104
501.9627 4.314301
502.4448 4.063171
502.9269 3.795532
503.4091 3.560486
503.8912 3.356781
504.3733 2.985657
504.8554 2.155075
505.3375 1.501862
505.8196 1.368668
506.3018 1.522919
506.7839 1.588608
507.2660 1.435013
507.7481 1.250839
508.2302 1.389572
508.7123 2.076538
509.1945 2.269073
509.6766 1.528625
510.1587 0.7304380
510.6408 0.1196440
511.1229 0.2961730
511.6050 0.5566710
512.0872 0.6776890
512.5693 0.6672820
513.0514 0.5130000
513.5335 0.1951450
514.0156 0.1300350
514.4977 0.5549320
514.9799 0.8391570
515.4620 0.7324070
515.9441 0.2873000
516.4262 0.1380000
516.9083 0.3998640
517.3904 0.5605010
517.8726 0.6762240
518.3547 0.7533040
518.8368 0.8466720
519.3189 0.9878850
519.8010 1.155945
520.2831 1.324036
520.7653 1.574150
521.2474 1.607018
521.7295 1.090973
522.2116 0.5326690
522.6937 0.4121400
523.1758 0.7138370
523.6580 1.165123
524.1401 1.618820
524.6222 1.989265
525.1043 1.798271
525.5864 0.2540360
526.0685 0.7130890
526.5507 0.5768430
527.0328 8.4778003E-02
527.5149 0.2112430
527.9970 0.2199550
528.4791 0.1064990
528.9612 3.7795998E-02
529.4434 0.1874770
529.9255 0.1626280
530.4076 0.1099850
530.8897 0.3855820
531.3718 0.6251140
531.8539 0.7806020
532.3361 0.7740400
532.8182 0.5750270
533.3003 0.3388750
533.7824 0.1160510
534.2645 6.2629998E-02
534.7466 0.1112670
535.2288 1.1787000E-02
535.7109 0.1335750
536.1930 0.2898180
536.6751 0.4265820
537.1572 0.3786700
537.6393 7.8041002E-02
538.1215 0.4277950
538.6036 0.4432070
539.0857 0.3091890
539.5678 0.2353900
540.0499 0.2734910
540.5320 0.3858870
541.0142 0.5393220
541.4963 0.7345200
541.9784 0.9395220
542.4604 1.242149
542.9426 1.443336
543.4247 1.417282
543.9068 1.310501
544.3889 1.294357
544.8710 1.412369
545.3531 1.566536
545.8353 1.625763
546.3174 1.605156
546.7995 1.704117
547.2816 1.985153
547.7637 2.275169
548.2458 2.555550
548.7280 2.754128
549.2101 2.701477
549.6922 2.248611
550.1743 1.802811
550.6564 1.544182
551.1385 1.488800
551.6207 1.747452
552.1028 2.351280
552.5849 2.973572
553.0670 3.296341
553.5491 3.318474
554.0313 3.428291
554.5134 3.789970
554.9955 4.031624
555.4776 3.929047
555.9597 3.706345
556.4418 3.657608
556.9240 3.848648
557.4061 4.106148
557.8882 4.194626
558.3703 4.097977
558.8524 4.285896
559.3345 5.050377
559.8167 5.676727
560.2988 5.872849
560.7809 5.837540
561.2630 5.798004
561.7451 5.809029
562.2272 5.833633
562.7094 5.824791
563.1915 5.802223
563.6736 5.855118
564.1557 6.014503
564.6378 6.136436
565.1199 6.083549
565.6021 5.907837
566.0842 5.845894
566.5663 5.963928
567.0484 6.101326
567.5305 6.131813
568.0126 6.186783
568.4948 6.546326
568.9769 7.184929
569.4590 7.660294
569.9411 7.512726
570.4232 6.799118
570.9053 6.495270
571.3875 7.015556
571.8696 7.413826
572.3517 7.486412
572.8338 7.398010
573.3159 7.240509
573.7980 7.058609
574.2802 6.959244
574.7623 7.107147
575.2444 7.435555
575.7265 7.624229
576.2086 7.634750
576.6907 7.686180
577.1729 7.983154
577.6550 8.313629
578.1371 8.291267
578.6192 7.795265
579.1013 7.451942
579.5834 7.673126
580.0656 8.115013
580.5477 8.339226
581.0298 8.316544
581.5119 8.280861
581.9940 8.389946
582.4761 8.592819
582.9583 8.747383
583.4404 9.032074
583.9225 9.123131
584.4046 8.840988
584.8867 8.446022
585.3688 7.988617
585.8510 7.583290
586.3331 7.459793
586.8152 7.818924
587.2973 8.433762
587.7794 8.765114
588.2615 8.758217
588.7437 8.740585
589.2258 8.887550
589.7079 8.944717
590.1900 8.563713
590.6721 7.847916
591.1542 7.408066
591.6364 7.625168
592.1185 8.022804
592.6006 8.246262
593.0827 8.305717
593.5648 8.236305
594.0469 8.040077
594.5291 7.841194
595.0112 7.842781
595.4933 8.148949
595.9754 8.305931
596.4575 8.176918
596.9396 8.046539
597.4218 7.964798
