#Shining_header
#Data type:raman_database
#CAS:Not entered
#Material scientific name:Bahianite
#Manufacturer:Not entered
#Laser model:Not entered
#Spectrometer model:Not entered
#Testing unit:Not entered
#Test time:Not entered
#Other experimental details:Not entered
#Shining_data
134.4781 0.0000000E+00
134.9602 0.1608200
135.4423 5.4775000E-02
135.9244 0.1292380
136.4065 0.4381450
136.8886 0.7133790
137.3708 0.9411430
137.8529 1.090191
138.3350 1.027416
138.8171 0.9758950
139.2992 0.9027630
139.7813 0.8794940
140.2635 1.016525
140.7456 1.382683
141.2277 1.979221
141.7098 2.789185
142.1919 3.858356
142.6740 5.040081
143.1561 6.298618
143.6383 7.611904
144.1204 8.945663
144.6025 10.27921
145.0846 11.61402
145.5667 13.01310
146.0488 14.61564
146.5310 16.16146
147.0131 17.39507
147.4952 18.27878
147.9773 18.83614
148.4594 18.92274
148.9415 18.62528
149.4237 18.37757
149.9058 18.30589
150.3879 18.40221
150.8700 18.66561
151.3521 19.18606
151.8342 19.76621
152.3164 20.19120
152.7985 20.48684
153.2806 21.01547
153.7627 22.12356
154.2448 23.65468
154.7269 25.52983
155.2091 27.89642
155.6912 30.16083
156.1733 31.62307
156.6554 32.45705
157.1375 33.22132
157.6196 33.99222
158.1018 34.62382
158.5839 35.72611
159.0660 37.24508
159.5481 39.22190
160.0302 41.81181
160.5123 45.00787
160.9945 48.55156
161.4766 51.94886
161.9587 54.96025
162.4408 58.25080
162.9229 62.66478
163.4050 66.94029
163.8871 70.17799
164.3693 72.03639
164.8514 72.28329
165.3335 70.19609
165.8156 64.83147
166.2977 58.46887
166.7798 50.42831
167.2620 41.65100
167.7441 33.51775
168.2262 26.59288
168.7083 20.75251
169.1904 15.78835
169.6725 11.68396
170.1547 8.176579
170.6368 5.184952
171.1189 2.722321
171.6010 0.8766750
172.0831 0.1748700
172.5652 0.6246640
173.0474 1.016041
173.5295 1.327927
174.0116 1.621616
174.4937 1.983505
174.9758 2.413849
175.4579 2.734016
175.9401 2.952152
176.4222 2.954281
176.9043 2.562004
177.3864 1.648865
177.8685 0.5525890
178.3506 0.2726860
178.8328 0.7262460
179.3149 1.277817
179.7970 2.143780
180.2791 3.151638
180.7612 4.185211
181.2433 5.223103
181.7255 6.213139
182.2076 7.045200
182.6897 7.676872
183.1718 8.201534
183.6539 8.571045
184.1360 8.891174
184.6181 9.295944
185.1003 9.861374
185.5824 10.50395
186.0645 10.90424
186.5466 10.71305
187.0287 10.70198
187.5108 10.89976
187.9930 11.34460
188.4751 12.16556
188.9572 13.45756
189.4393 15.07499
189.9214 16.17478
190.4035 15.96765
190.8857 16.11710
191.3678 16.92916
191.8499 18.30525
192.3320 20.13290
192.8141 22.35954
193.2962 24.91335
193.7784 27.21672
194.2605 28.81287
194.7426 30.68906
195.2247 33.28554
195.7068 36.45825
196.1889 39.83336
196.6711 43.26942
197.1532 46.68433
197.6353 49.74669
198.1174 53.12174
198.5995 55.61998
199.0816 56.32812
199.5638 55.42186
200.0459 54.14635
200.5280 53.50786
201.0101 52.82785
201.4922 50.52536
201.9743 46.08270
202.4565 40.45471
202.9386 33.90487
203.4207 26.37506
203.9028 19.47731
204.3849 14.07116
204.8670 9.938889
205.3492 6.889713
205.8313 5.085167
206.3134 4.109821
206.7955 3.545620
207.2776 3.418606
207.7597 3.588512
208.2419 4.289192
208.7240 5.146378
209.2061 5.758968
209.6882 5.925793
210.1703 5.945587
210.6524 6.323219
211.1346 7.109718
211.6167 8.134472
212.0988 9.429016
212.5809 10.86108
213.0630 12.31118
213.5451 13.71629
214.0273 15.14787
214.5094 16.78836
214.9915 18.83219
215.4736 20.73287
215.9557 22.32530
216.4378 23.77778
216.9200 25.29107
217.4021 26.94936
217.8842 28.66129
218.3663 30.15727
218.8484 31.42802
219.3305 32.44636
219.8127 33.62165
220.2948 34.41948
220.7769 34.25890
221.2590 32.87531
221.7411 30.48320
222.2232 27.69899
222.7054 23.87975
223.1875 20.43025
223.6696 17.50776
224.1517 14.96064
224.6338 12.61906
225.1159 10.39694
225.5980 8.348576
226.0802 6.639889
226.5623 5.408871
227.0444 4.379959
227.5265 3.537327
228.0086 2.887688
228.4907 2.504452
228.9729 2.429398
229.4550 2.528008
229.9371 2.407368
230.4192 1.900387
230.9013 1.498314
231.3834 1.181099
231.8656 1.042286
232.3477 1.266151
232.8298 1.951027
233.3119 2.906353
233.7940 3.690372
234.2761 4.115250
234.7583 4.901379
235.2404 6.196598
235.7225 8.016560
236.2046 10.34074
236.6867 13.13265
237.1688 16.41581
237.6510 20.46484
238.1331 25.35206
238.6152 30.16216
239.0973 34.97167
239.5794 39.47389
240.0615 42.90897
240.5437 44.94926
241.0258 46.13198
241.5079 47.05606
241.9900 47.73246
242.4721 48.39372
242.9542 49.01180
243.4364 49.68262
243.9185 50.66669
244.4006 52.05740
244.8827 53.70841
245.3648 55.41626
245.8469 57.18896
246.3290 59.20298
246.8112 61.60308
247.2933 64.30643
247.7754 67.11595
248.2575 69.97569
248.7396 72.99857
249.2217 76.22129
249.7039 79.63689
250.1860 83.23701
250.6681 86.64533
251.1502 90.15904
251.6323 94.92426
252.1144 100.9447
252.5966 108.4166
253.0787 116.9870
253.5608 126.7898
254.0429 138.3865
254.5250 152.9216
255.0071 169.4814
255.4893 185.1526
255.9714 201.7441
256.4535 213.9262
256.9356 221.6300
257.4177 223.9919
257.8998 219.2681
258.3820 205.4847
258.8641 184.3861
259.3462 161.4982
259.8283 134.3650
260.3104 109.6760
260.7925 88.47768
261.2747 70.64491
261.7568 56.25571
262.2389 45.48305
262.7210 37.71958
263.2031 31.15775
263.6852 26.07079
264.1674 21.87236
264.6495 18.56553
265.1316 15.84911
265.6137 13.45306
266.0958 11.26551
266.5779 9.306007
267.0601 7.628433
267.5422 6.244358
268.0243 5.182495
268.5064 4.532505
268.9885 4.096432
269.4706 3.709538
269.9528 3.327942
270.4349 3.021557
270.9170 2.894207
271.3991 2.984085
271.8812 3.204391
272.3633 3.425285
272.8455 3.828400
273.3276 4.586330
273.8097 5.722130
274.2918 7.077511
274.7739 8.417183
275.2560 9.685574
275.7382 11.03104
276.2202 12.67279
276.7024 14.20679
277.1845 15.38610
277.6666 16.17876
278.1487 16.69489
278.6308 17.02375
279.1129 17.08849
279.5951 17.40816
280.0772 18.04395
280.5593 18.83488
281.0414 19.76182
281.5235 20.78275
282.0056 21.80093
282.4878 22.70495
282.9699 23.45898
283.4520 24.40917
283.9341 25.72163
284.4162 27.04338
284.8983 28.03091
285.3805 28.87876
285.8626 30.16679
286.3447 32.44086
286.8268 35.66340
287.3089 37.99154
287.7910 38.27098
288.2732 38.96216
288.7553 40.82275
289.2374 43.60343
289.7195 46.77896
290.2016 50.06002
290.6837 53.41540
291.1659 56.76863
291.6480 60.85357
292.1301 64.05708
292.6122 66.22838
293.0943 67.32457
293.5764 67.36419
294.0586 66.36190
294.5407 63.61510
295.0228 60.58227
295.5049 54.57302
295.9870 48.08050
296.4691 40.40703
296.9513 32.60826
297.4334 25.67630
297.9155 19.97886
298.3976 15.41344
298.8797 11.87004
299.3618 9.848457
299.8440 8.078300
300.3261 6.629311
300.8082 5.392944
301.2903 4.204594
301.7724 3.066883
302.2545 2.198685
302.7367 1.898487
303.2188 2.384678
303.7009 2.671665
304.1830 2.707367
304.6651 2.609444
305.1472 2.331417
305.6294 1.934811
306.1115 1.661850
306.5936 1.748291
307.0757 2.224632
307.5578 2.576851
308.0399 2.519650
308.5221 2.634731
309.0042 3.281216
309.4863 4.322971
309.9684 5.393227
310.4505 6.271633
310.9326 6.969460
311.4148 7.493801
311.8969 7.605701
312.3790 7.849537
312.8611 8.380512
313.3432 9.123180
313.8253 9.926117
314.3075 10.70851
314.7896 11.57597
315.2717 12.83032
315.7538 15.03729
316.2359 16.81770
316.7180 17.95212
317.2001 18.65683
317.6823 19.14302
318.1644 19.47733
318.6465 19.63231
319.1286 19.55665
319.6107 19.14771
320.0928 18.71949
320.5750 18.54322
321.0571 18.16282
321.5392 17.09879
322.0213 15.36895
322.5034 13.48812
322.9855 12.02066
323.4677 11.06895
323.9498 9.624336
324.4319 7.102245
324.9140 4.701569
325.3961 3.004345
325.8782 1.949440
326.3604 1.191219
326.8425 0.5077210
327.3246 9.7182997E-02
327.8067 0.5888790
328.2888 0.8785780
328.7709 1.173595
329.2531 1.542892
329.7352 1.947895
330.2173 2.343178
330.6994 2.711998
331.1815 3.019859
331.6636 3.172649
332.1458 3.126354
332.6279 2.961742
333.1100 2.606537
333.5921 2.171528
334.0742 1.785759
334.5563 1.480965
335.0385 1.149532
335.5206 0.6217190
336.0027 0.2529300
336.4848 0.9365270
336.9669 1.426289
337.4490 1.758404
337.9312 1.880890
338.4133 1.840721
338.8954 1.786488
339.3775 1.829906
339.8596 1.952633
340.3417 2.424099
340.8239 3.752392
341.3060 4.855717
341.7881 5.214947
342.2702 5.060753
342.7523 4.855816
343.2344 4.866962
343.7166 5.101940
344.1987 5.602753
344.6808 6.724148
345.1629 7.722691
345.6450 8.391670
346.1271 8.956108
346.6093 9.649048
347.0914 10.55443
347.5735 11.64218
348.0556 12.84219
348.5377 14.19291
349.0198 15.61189
349.5020 17.06966
349.9841 18.60568
350.4662 20.42954
350.9483 22.44139
351.4304 24.18064
351.9125 25.13026
352.3947 25.21997
352.8768 24.96967
353.3589 24.58661
353.8410 23.66798
354.3231 21.77036
354.8052 19.22326
355.2874 16.67534
355.7695 14.57803
356.2516 12.84525
356.7337 10.90185
357.2158 8.170456
357.6979 6.055767
358.1800 5.117157
358.6621 4.744312
359.1443 4.295780
359.6264 3.521675
360.1085 2.592274
360.5906 1.778675
361.0727 1.042919
361.5548 0.5363390
362.0370 0.3412780
362.5191 0.3101500
363.0012 0.4074750
363.4833 0.6039280
363.9654 0.8209920
364.4475 0.9698410
364.9297 1.043289
365.4118 1.168293
365.8939 1.351444
366.3760 1.585838
366.8581 1.754974
367.3402 1.973465
367.8224 2.492119
368.3045 3.534084
368.7866 4.907722
369.2687 6.048065
369.7508 6.875793
370.2329 7.631611
370.7151 8.372807
371.1972 9.102436
371.6793 9.812702
372.1614 10.48626
372.6435 11.21056
373.1256 12.20298
373.6078 13.51832
374.0899 14.47243
374.5720 14.65638
375.0541 14.63386
375.5362 14.81476
376.0183 15.20924
376.5005 15.64990
376.9826 16.02860
377.4647 16.36121
377.9468 16.69729
378.4289 17.00876
378.9110 17.39894
379.3932 17.96861
379.8753 18.66258
380.3574 19.37408
380.8395 19.98198
381.3216 20.65941
381.8037 21.62745
382.2859 22.89398
382.7680 24.26050
383.2501 25.68448
383.7322 27.15205
384.2143 28.64101
384.6964 30.14038
385.1786 31.64097
385.6607 33.21902
386.1428 34.78535
386.6249 36.04715
387.1070 36.85896
387.5891 37.50613
388.0713 38.50187
388.5534 39.81432
389.0355 40.64584
389.5176 40.26407
389.9997 39.71149
390.4818 40.05145
390.9640 41.33132
391.4461 42.95113
391.9282 44.49990
392.4103 46.05706
392.8924 48.01693
393.3745 50.59217
393.8567 53.34772
394.3388 56.15612
394.8209 58.95977
395.3030 61.63131
395.7851 64.14620
396.2672 66.52304
396.7494 68.79781
397.2315 70.80729
397.7136 73.10722
398.1957 75.95809
398.6778 78.96995
399.1599 81.77593
399.6420 84.37564
400.1241 87.06837
400.6063 90.12053
401.0884 93.55363
401.5705 97.03745
402.0526 100.4352
402.5347 104.0283
403.0168 108.1429
403.4990 112.4694
403.9811 116.3822
404.4632 119.5560
404.9453 122.4388
405.4274 126.1462
405.9095 131.3362
406.3917 136.2331
406.8738 140.6597
407.3559 144.8782
407.8380 149.2198
408.3201 153.6378
408.8022 157.7615
409.2844 161.3951
409.7665 164.5697
410.2486 166.4158
410.7307 166.8987
411.2128 165.8979
411.6949 163.5096
412.1771 159.6028
412.6592 153.8795
413.1413 146.0997
413.6234 136.7423
414.1055 126.6763
414.5876 115.6017
415.0698 104.5812
415.5519 93.34604
416.0340 82.64691
416.5161 72.98464
416.9982 64.38745
417.4803 56.87478
417.9625 50.63632
418.4446 45.55625
418.9267 40.65377
419.4088 35.72656
419.8909 31.29731
420.3730 27.83894
420.8552 25.10036
421.3373 22.67668
421.8194 20.59804
422.3015 18.59717
422.7836 16.25246
423.2657 13.57714
423.7479 11.14779
424.2300 9.146252
424.7121 7.585018
425.1942 6.452740
425.6763 5.816402
426.1584 5.253029
426.6406 4.591591
427.1227 3.883694
427.6048 3.193783
428.0869 2.521973
428.5690 1.956532
429.0511 1.627838
429.5333 1.533028
430.0154 1.283688
430.4975 0.6587450
430.9796 8.5423000E-02
431.4617 0.1199040
431.9438 7.6897003E-02
432.4260 0.1148340
432.9081 0.3950390
433.3902 0.8189890
433.8723 1.156334
434.3544 1.375893
434.8365 1.553154
435.3187 1.633072
435.8008 1.710239
436.2829 1.888004
436.7650 2.160942
437.2471 2.433338
437.7292 2.629879
438.2114 2.753597
438.6935 2.696228
439.1756 2.250378
439.6577 1.850101
440.1398 1.556496
440.6219 1.378284
441.1040 1.352257
441.5862 1.492893
442.0683 1.699799
442.5504 1.804283
443.0325 1.813774
443.5146 1.693920
443.9967 1.481773
444.4789 1.103165
444.9610 0.3932380
445.4431 0.5523610
445.9252 1.418797
446.4073 1.931358
446.8894 2.185616
447.3716 2.561722
447.8537 3.120598
448.3358 3.647209
448.8179 4.062458
449.3000 4.390755
449.7821 4.647530
450.2643 4.833054
450.7464 4.959240
451.2285 4.914993
451.7106 4.778618
452.1927 4.989773
452.6748 5.734531
453.1570 6.636101
453.6391 7.356087
454.1212 7.920525
454.6033 8.392380
455.0854 8.610954
455.5675 8.868771
456.0497 9.485676
456.5318 10.41413
457.0139 11.33480
457.4960 12.05602
457.9781 12.70348
458.4602 13.64881
458.9424 15.02016
459.4245 16.36279
459.9066 17.52363
460.3887 18.65573
460.8708 19.95084
461.3529 21.41866
461.8351 22.89454
462.3172 24.24984
462.7993 25.47836
463.2814 26.51013
463.7635 27.10958
464.2456 27.79594
464.7278 28.72875
465.2099 29.82451
465.6920 30.91767
466.1741 31.95525
466.6562 33.08443
467.1383 34.59010
467.6205 36.63341
468.1026 38.59454
468.5847 39.86564
469.0668 41.59114
469.5489 44.48416
470.0310 48.29748
470.5132 52.23500
470.9953 55.71894
471.4774 59.09291
471.9595 63.19351
472.4416 68.01421
472.9237 73.56815
473.4059 80.38606
473.8880 87.63277
474.3701 94.81813
474.8522 101.8787
475.3343 108.1381
475.8164 113.3024
476.2986 117.2819
476.7807 120.1215
477.2628 121.9701
477.7449 121.8428
478.2270 118.8981
478.7091 113.1583
479.1913 105.4684
479.6734 94.54341
480.1555 83.16274
480.6376 72.05600
481.1197 61.60696
481.6018 52.59966
482.0839 45.29962
482.5660 39.37506
483.0482 34.32015
483.5303 30.11471
484.0124 27.27048
484.4945 26.39813
484.9766 26.22368
485.4587 26.41376
485.9409 26.73461
486.4230 26.70480
486.9051 25.99994
487.3872 25.10586
487.8693 25.48622
488.3514 27.89397
488.8336 30.20257
489.3157 32.28577
489.7978 34.22781
490.2799 35.95381
490.7620 37.52883
491.2441 39.19513
491.7263 41.16292
492.2084 43.39178
492.6905 45.62815
493.1726 47.75912
493.6547 50.17735
494.1368 53.27959
494.6190 56.60503
495.1011 59.81241
495.5832 62.88829
496.0653 65.49658
496.5474 67.26384
497.0295 68.36699
497.5117 69.24181
497.9938 69.93777
498.4759 70.41927
498.9580 70.64069
499.4401 70.59459
499.9222 70.35007
500.4044 69.92565
500.8865 69.30420
501.3686 68.49126
501.8507 67.48087
502.3328 66.16872
502.8149 64.51984
503.2971 62.80843
503.7792 61.47504
504.2613 60.72041
504.7434 59.56087
505.2255 57.38538
505.7076 55.45332
506.1898 54.56996
506.6719 54.36868
507.1540 54.05490
507.6361 53.20868
508.1182 52.04704
508.6003 51.06431
509.0825 50.28673
509.5646 49.61572
510.0467 48.73620
510.5288 48.22392
511.0109 48.64670
511.4930 49.78285
511.9752 50.81329
512.4573 51.20599
512.9394 51.16596
513.4215 51.07349
513.9036 50.87587
514.3857 50.96699
514.8679 51.63647
515.3500 52.58436
515.8321 53.33663
516.3142 53.83162
516.7963 54.61636
517.2784 56.24063
517.7606 58.15065
518.2427 59.42953
518.7248 60.04011
519.2069 60.89966
519.6890 62.76268
520.1711 65.32167
520.6533 66.95764
521.1354 66.97118
521.6175 67.16219
522.0996 67.90314
522.5817 68.90987
523.0638 69.70115
523.5460 70.31519
524.0281 71.49501
524.5102 74.11050
524.9923 78.08811
525.4744 81.07344
525.9565 81.92828
526.4387 83.22987
526.9208 85.51793
527.4029 88.48058
527.8850 91.94347
528.3671 95.82092
528.8492 99.66749
529.3314 102.8511
529.8135 105.4717
530.2956 108.7734
530.7777 113.4088
531.2598 117.4876
531.7419 119.7157
532.2241 120.6282
532.7062 121.0615
533.1883 121.5297
533.6704 120.7770
534.1525 117.5778
534.6346 112.5565
535.1168 107.0716
535.5989 101.4262
536.0810 95.47388
536.5631 89.01862
537.0452 81.99403
537.5273 75.18063
538.0095 68.46857
538.4916 62.06696
538.9737 55.82877
539.4558 49.98054
539.9379 44.85160
540.4200 40.55829
540.9022 36.93741
541.3843 33.83155
541.8664 31.28957
542.3485 29.05121
542.8306 27.16142
543.3127 25.46355
543.7948 24.03519
544.2769 22.80159
544.7590 21.62278
545.2411 20.43997
545.7233 19.34444
546.2054 18.44285
546.6875 17.67865
547.1696 17.02382
547.6517 16.60823
548.1339 16.25286
548.6160 15.63420
549.0981 14.87289
549.5802 14.39554
550.0623 14.52646
550.5444 14.66002
551.0266 14.42621
551.5087 13.97247
551.9908 13.46984
552.4729 12.93198
552.9550 12.49448
553.4371 12.34838
553.9193 12.56372
554.4014 12.76426
554.8835 12.99727
555.3656 13.13411
555.8477 13.04229
556.3298 12.82264
556.8120 12.59240
557.2941 12.41250
557.7762 12.44897
558.2583 13.07642
558.7404 14.42062
559.2225 15.26172
559.7047 15.32301
560.1868 15.17337
560.6689 14.89853
561.1510 14.61865
561.6331 14.56824
562.1152 14.86200
562.5974 15.31799
563.0795 15.88742
563.5616 16.47310
564.0437 16.70995
564.5258 16.47119
565.0079 16.12276
565.4901 16.00327
565.9722 16.10283
566.4543 16.09869
566.9364 16.15406
567.4185 15.91894
567.9006 14.98153
568.3828 13.78286
568.8649 13.01675
569.3470 12.83290
569.8291 12.71736
570.3112 12.05602
570.7933 10.80403
571.2755 9.734184
571.7576 8.869766
572.2397 8.172165
572.7218 7.861385
573.2039 7.588676
573.6860 6.864029
574.1682 5.578434
574.6503 4.315197
575.1324 3.671890
575.6145 3.527077
576.0966 3.369015
576.5787 3.185284
577.0609 2.918095
577.5430 2.482384
578.0251 1.956398
578.5072 1.512836
578.9893 1.102661
579.4714 0.8919560
579.9536 1.015083
580.4357 1.334709
580.9178 1.826916
581.3999 2.412827
581.8820 2.688831
582.3641 2.289703
582.8463 1.366478
583.3284 0.7949710
583.8105 0.7585870
584.2926 0.8297160
584.7747 1.065430
585.2568 1.322216
585.7390 1.478886
586.2211 1.543232
586.7032 1.619400
587.1853 1.809097
587.6674 2.043869
588.1495 2.142544
588.6317 2.099705
589.1138 1.936497
589.5959 1.542358
590.0780 1.140804
590.5601 1.084709
591.0422 1.365959
591.5244 1.400978
592.0065 0.7980800
592.4886 4.1423999E-02
592.9707 0.4944340
593.4528 0.8029170
593.9349 0.9064600
594.4171 0.7991750
594.8992 0.5984420
595.3813 0.5135840
595.8634 0.6020320
596.3455 0.6378480
596.8276 0.5349850
597.3098 0.4775280
597.7919 0.5298920
598.2740 0.6845930
598.7561 0.9827040
599.2382 1.453876
599.7203 1.841221
600.2025 1.683254
600.6846 1.001537
601.1667 0.6254540
601.6488 0.7219390
602.1309 0.9610980
602.6130 1.285915
603.0952 1.570969
603.5773 1.471752
604.0594 0.6158560
604.5415 4.3179998E-03
605.0236 0.3704950
605.5057 1.204910
605.9879 1.727509
606.4700 1.800716
606.9521 1.550072
607.4342 1.016769
607.9163 0.2710910
608.3984 0.1476140
608.8806 0.1498370
609.3627 0.2463760
609.8448 0.2040750
610.3269 0.6759070
610.8090 0.6980550
611.2911 0.3080100
611.7733 9.8899998E-02
612.2554 0.2894170
612.7375 0.2759550
613.2196 2.7500000E-03
613.7017 0.5923770
614.1838 0.9582790
614.6660 0.8682520
615.1481 0.5755880
615.6302 0.3423610
616.1123 0.1645010
616.5944 3.1063000E-02
617.0765 0.2169150
617.5587 0.2742200
618.0408 0.2973140
618.5229 1.189171
619.0050 1.674248
619.4871 1.505154
619.9692 1.111259
620.4514 1.060474
620.9335 1.386028
621.4156 1.803249
621.8977 2.563068
622.3798 3.110111
622.8619 3.143909
623.3441 2.970917
623.8262 2.956417
624.3083 3.184109
624.7904 3.428772
625.2725 3.502396
625.7546 3.446514
626.2367 3.340328
626.7188 3.176029
627.2009 3.103901
627.6830 3.231125
628.1652 3.475956
628.6473 3.658779
629.1294 3.778370
629.6115 3.856564
630.0936 3.887314
630.5757 3.885815
631.0579 3.744900
631.5400 3.583618
632.0221 3.729843
632.5042 4.357906
632.9863 5.193417
633.4684 5.735535
633.9506 5.954456
634.4327 6.025311
634.9148 5.846518
635.3969 5.656279
635.8790 5.527271
636.3611 5.477882
636.8433 5.544437
637.3254 5.747429
637.8075 6.030346
638.2896 6.381054
638.7717 6.773487
639.2538 7.193039
639.7360 7.630705
640.2181 7.987316
640.7002 8.198133
641.1823 8.268826
641.6644 8.221016
642.1465 7.928682
642.6287 7.688541
643.1108 7.479639
643.5929 7.344912
644.0750 7.258251
644.5571 7.270065
645.0392 7.522633
645.5214 8.130585
646.0035 8.899975
646.4856 9.507553
646.9677 9.949188
647.4498 10.33624
647.9319 10.68254
648.4141 10.99053
648.8962 11.28220
649.3783 11.53571
649.8604 11.65182
650.3425 11.31120
650.8246 11.26571
651.3068 12.11609
651.7889 13.24690
652.2710 13.90290
652.7531 14.04370
653.2352 14.07436
653.7173 14.24662
654.1995 14.51943
654.6816 14.81712
655.1637 15.10338
655.6458 15.57145
656.1279 16.47578
656.6100 17.40670
657.0922 18.12883
657.5743 18.57947
658.0564 18.77265
658.5385 18.55456
