#Shining_header
#Data type:raman_database
#CAS:Not entered
#Material scientific name:Annite
#Manufacturer:Not entered
#Laser model:Not entered
#Spectrometer model:Not entered
#Testing unit:Not entered
#Test time:Not entered
#Other experimental details:Not entered
#Shining_data
145.3421 0.0000000E+00
145.8242 0.2505490
146.3063 0.4784240
146.7884 0.1232450
147.2706 0.1681670
147.7527 0.1430050
148.2348 0.2596740
148.7169 0.8653560
149.1990 1.288483
149.6811 1.381836
150.1633 1.755020
150.6454 2.758972
151.1275 4.240952
151.6096 5.715118
152.0917 6.997482
152.5738 8.181641
153.0560 9.482773
153.5381 10.96347
154.0202 12.33237
154.5023 13.17772
154.9844 13.45793
155.4665 14.06393
155.9487 15.55583
156.4308 17.41435
156.9129 19.31224
157.3950 21.19991
157.8771 22.98276
158.3592 24.41077
158.8414 25.15196
159.3235 26.39668
159.8056 28.67355
160.2877 31.38808
160.7698 34.10699
161.2519 36.64706
161.7341 39.01080
162.2162 41.17088
162.6983 42.92825
163.1804 44.75923
163.6625 46.58371
164.1446 48.55070
164.6268 50.83754
165.1089 53.56651
165.5910 56.67427
166.0731 59.79993
166.5552 63.12671
167.0373 66.26598
167.5195 68.94536
168.0016 71.38469
168.4837 74.04887
168.9658 77.26983
169.4479 81.01219
169.9300 84.37968
170.4122 87.30460
170.8943 90.01127
171.3764 92.59585
171.8585 95.04858
172.3406 97.33376
172.8227 99.44238
173.3049 101.3134
173.7870 102.8819
174.2691 104.0350
174.7512 104.9771
175.2333 105.8495
175.7154 106.6596
176.1976 107.4061
176.6797 108.2370
177.1618 109.0097
177.6439 109.2876
178.1260 108.8447
178.6081 107.9400
179.0903 106.9673
179.5724 105.7334
180.0545 104.4141
180.5366 102.8076
181.0187 100.7229
181.5008 98.51695
181.9830 96.38389
182.4651 94.16135
182.9472 91.61364
183.4293 89.01635
183.9114 86.33628
184.3935 83.48955
184.8757 80.68890
185.3578 78.08059
185.8399 75.67745
186.3220 73.40484
186.8041 70.73902
187.2862 66.90917
187.7684 63.24660
188.2505 60.45256
188.7326 58.31802
189.2147 56.14735
189.6968 53.46776
190.1789 50.24270
190.6611 47.35980
191.1432 45.02361
191.6253 42.82556
192.1074 40.68820
192.5895 38.60370
193.0716 36.56310
193.5538 34.58792
194.0359 32.67026
194.5180 30.77815
195.0001 28.82336
195.4822 26.96973
195.9643 25.32033
196.4465 23.85849
196.9286 22.48167
197.4107 21.12688
197.8928 19.80637
198.3749 18.33738
198.8570 16.47998
199.3392 14.67064
199.8213 13.15571
200.3034 11.96175
200.7855 11.06149
201.2676 10.51567
201.7497 10.34505
202.2319 9.946701
202.7140 9.099617
203.1961 8.151787
203.6782 7.386818
204.1603 6.837570
204.6424 6.372047
205.1246 5.885780
205.6067 5.389595
206.0888 4.906517
206.5709 4.494743
207.0530 4.074219
207.5351 3.490013
208.0173 2.672340
208.4994 1.902321
208.9815 1.427254
209.4636 1.160690
209.9457 0.9602970
210.4278 0.8501510
210.9100 0.7600560
211.3921 0.4849170
211.8742 0.1081850
212.3563 0.5986180
212.8384 0.6172100
213.3205 0.3760220
213.8027 0.2741240
214.2848 0.6831050
214.7669 1.381363
215.2490 1.492935
215.7311 0.5740360
216.2132 0.2570270
216.6953 0.5564420
217.1775 0.4558030
217.6596 0.1543120
218.1417 0.3283390
218.6238 0.9118420
219.1059 1.070511
219.5880 0.2774960
220.0702 0.2999570
220.5523 0.1519240
221.0344 0.4127810
221.5165 0.8789980
221.9986 0.8831180
222.4807 0.4873350
222.9629 0.2789230
223.4450 0.4051280
223.9271 0.5839770
224.4092 0.8759990
224.8913 1.170509
225.3734 1.274742
225.8556 1.037956
226.3377 0.5044100
226.8198 0.1810610
227.3019 0.3161930
227.7840 0.4099120
228.2661 0.4294200
228.7483 0.3282930
229.2304 2.2774000E-02
229.7125 0.7523500
230.1946 1.778725
230.6767 2.177193
231.1588 1.235336
231.6410 0.4976270
232.1231 0.4473720
232.6052 0.8739320
233.0873 1.329422
233.5694 1.539246
234.0515 1.552887
234.5337 1.734634
235.0158 2.295349
235.4979 2.760712
235.9800 2.932693
236.4621 2.902962
236.9442 2.887741
237.4264 3.020294
237.9085 3.244003
238.3906 3.293297
238.8727 2.971497
239.3548 2.732796
239.8369 2.799347
240.3191 3.072380
240.8012 3.292854
241.2833 3.300629
241.7654 3.208931
242.2475 3.356842
242.7296 3.847977
243.2118 4.362427
243.6939 4.806213
244.1760 5.172905
244.6581 5.436310
245.1402 5.573257
245.6223 5.604980
246.1045 5.572258
246.5866 5.445396
247.0687 5.355927
247.5508 5.392662
248.0329 5.524147
248.5150 5.630875
248.9972 5.643997
249.4793 5.657402
249.9614 5.834328
250.4435 6.209343
250.9256 6.516075
251.4077 6.530724
251.8899 6.326370
252.3720 6.243057
252.8541 6.447960
253.3362 6.699692
253.8183 6.685242
254.3004 6.407913
254.7826 6.218643
255.2647 6.459389
255.7468 7.019386
256.2289 7.284828
256.7110 6.896744
257.1931 6.535126
257.6753 6.389320
258.1574 7.329247
258.6395 7.965454
259.1216 8.304359
259.6037 7.484329
260.0858 8.157417
260.5680 8.230911
261.0501 8.279442
261.5322 9.161873
262.0143 8.509399
262.4964 9.459854
262.9785 9.624207
263.4607 9.614212
263.9428 9.778145
264.4249 10.32611
264.9070 10.73785
265.3891 10.64835
265.8712 10.26110
266.3534 9.989830
266.8355 10.12171
267.3176 10.56172
267.7997 10.92204
268.2818 11.26373
268.7639 11.40395
269.2461 11.14884
269.7282 10.69429
270.2103 10.33233
270.6924 10.25134
271.1745 10.42970
271.6566 10.71004
272.1388 10.47064
272.6209 11.11861
273.1030 11.44424
273.5851 11.53444
274.0672 10.51323
274.5493 10.99163
275.0315 10.86848
275.5136 10.71175
275.9957 11.35750
276.4778 10.23136
276.9599 10.20053
277.4420 10.58016
277.9242 11.02338
278.4063 11.37516
278.8884 11.56695
279.3705 11.52810
279.8526 11.25812
280.3347 10.85608
280.8169 10.15289
281.2990 9.423409
281.7811 8.901787
282.2632 8.631561
282.7453 8.473717
283.2274 8.263817
283.7096 8.075493
284.1917 7.730026
284.6738 7.007042
285.1559 6.267273
285.6380 5.710899
286.1201 5.380936
286.6023 5.232750
287.0844 5.264206
287.5665 5.568001
288.0486 5.696602
288.5307 5.521263
289.0128 5.272545
289.4950 5.084534
289.9771 4.940041
290.4592 4.702766
290.9413 4.197784
291.4234 3.383415
291.9055 2.806839
292.3877 2.599007
292.8698 2.497643
293.3519 2.480438
293.8340 2.501480
294.3161 2.492134
294.7982 2.401352
295.2804 2.236938
295.7625 2.099197
296.2446 2.086632
296.7267 1.990372
297.2088 1.676842
297.6909 1.275063
298.1731 0.9867250
298.6552 0.9270940
299.1373 1.031151
299.6194 1.057045
300.1015 0.9667890
300.5836 0.8372420
301.0658 0.5050960
301.5479 0.2071990
302.0300 0.2947850
302.5121 0.8902890
302.9942 1.667900
303.4763 1.928764
303.9585 1.060631
304.4406 0.5869830
304.9227 0.8593600
305.4048 1.293320
305.8869 1.406815
306.3690 1.097076
306.8512 0.6043780
307.3333 0.2503740
307.8154 5.7472002E-02
308.2975 3.3821002E-02
308.7796 2.1354999E-02
309.2617 6.9678999E-02
309.7439 0.2967070
310.2260 0.6158750
310.7081 0.8611530
311.1902 0.8426360
311.6723 0.4955370
312.1544 0.3628390
312.6366 0.6890790
313.1187 0.9569020
313.6008 0.9364320
314.0829 0.6849210
314.5650 0.3637620
315.0471 7.4913003E-02
315.5293 0.1729510
316.0114 0.2579500
316.4935 9.8040001E-03
316.9756 0.2107010
317.4577 0.3588560
317.9398 0.4264140
318.4220 0.3804630
318.9041 0.1969910
319.3862 5.0583001E-02
319.8683 0.1281360
320.3504 0.1149520
320.8326 0.3544460
321.3147 0.5967100
321.7968 0.8172070
322.2789 1.024078
322.7610 1.209633
323.2431 1.306206
323.7253 1.182121
324.2074 0.6443250
324.6895 0.2637250
325.1716 2.4277000E-02
325.6537 0.1423190
326.1358 0.1173100
326.6180 0.6874240
327.1001 1.162498
327.5822 1.055489
328.0643 0.1899030
328.5464 0.3678510
329.0285 0.5167850
329.5107 0.5030520
329.9928 0.3304290
330.4749 7.0450000E-02
330.9570 0.1392440
331.4391 0.1873780
331.9212 8.6898997E-02
332.4034 3.8688999E-02
332.8855 2.7930999E-02
333.3676 3.8582001E-02
333.8497 0.4483950
334.3318 0.9683760
334.8139 1.241020
335.2961 1.080505
335.7782 0.6581500
336.2603 0.4882510
336.7424 0.8255460
337.2245 1.044090
337.7066 1.011154
338.1888 0.8972470
338.6708 0.8634800
339.1530 0.9515300
339.6351 1.093033
340.1172 1.187225
340.5993 1.247704
341.0814 1.229042
341.5635 1.093697
342.0457 0.9223790
342.5278 0.6614690
343.0099 0.3746490
343.4920 0.2516330
343.9741 0.5052110
344.4562 1.161125
344.9384 1.710510
345.4205 2.307114
345.9026 2.622627
346.3847 2.322166
346.8668 1.698059
347.3489 1.277489
347.8311 1.408775
348.3132 1.930748
348.7953 2.186279
349.2774 1.990570
349.7595 1.798569
350.2416 1.633270
350.7238 1.541039
351.2059 1.597893
351.6880 1.827736
352.1701 2.124474
352.6522 2.311562
353.1343 2.356827
353.6165 2.384293
354.0986 2.526146
354.5807 2.565521
355.0628 2.264381
355.5449 1.667831
356.0270 1.116974
356.5092 0.9721070
356.9913 1.251183
357.4734 1.507103
357.9555 1.810738
358.4376 1.999504
358.9197 1.923943
359.4019 1.688492
359.8840 1.499603
360.3661 1.491547
360.8482 1.609100
361.3303 1.665955
361.8124 1.598244
362.2946 1.607376
362.7767 2.019066
363.2588 2.422485
363.7409 1.756699
364.2230 2.425209
364.7051 2.784134
365.1873 2.850990
365.6694 1.759453
366.1515 2.160896
366.6336 1.964081
367.1157 1.744431
367.5978 2.253296
368.0800 2.371170
368.5621 2.404083
369.0442 2.302170
369.5263 2.095161
370.0084 1.962540
370.4905 1.899780
370.9727 1.912651
371.4548 2.167053
371.9369 2.518875
372.4190 2.623688
372.9011 2.194328
373.3832 1.547798
373.8654 1.183884
374.3475 1.148178
374.8296 1.107483
375.3117 0.8660130
375.7938 0.5372920
376.2759 0.2796100
376.7581 0.1052020
377.2402 4.9510002E-03
377.7223 4.8679998E-03
378.2044 9.7015001E-02
378.6865 0.1907580
379.1686 0.2313770
379.6508 0.2861790
380.1329 0.5542140
380.6150 1.038513
381.0971 1.302818
381.5792 0.9825290
382.0613 0.4526900
382.5435 0.3195190
383.0256 0.6578830
383.5077 0.9876560
383.9898 0.8906480
384.4719 0.4660640
384.9540 0.3472600
385.4362 0.8822020
385.9183 1.429878
386.4004 1.577805
386.8825 1.399696
387.3646 1.112892
387.8467 0.7994920
388.3289 0.4915620
388.8110 0.2869110
389.2931 0.1316830
389.7752 0.1500930
390.2573 0.5321880
390.7394 1.029259
391.2216 1.346207
391.7037 1.430206
392.1858 1.379677
392.6679 1.335991
393.1500 1.311783
393.6321 1.247658
394.1143 1.129471
394.5964 0.9911500
395.0785 0.3697280
395.5606 1.107307
396.0427 1.539146
396.5248 1.682793
397.0070 0.6707000
397.4891 1.153877
397.9712 1.038147
398.4533 0.8957600
398.9354 1.585114
399.4175 0.7375260
399.8997 1.413582
400.3818 1.338631
400.8639 1.386856
401.3460 1.435822
401.8281 1.464096
402.3102 1.557480
402.7924 1.828201
403.2745 2.055092
403.7566 2.149086
404.2387 2.101410
404.7208 1.896973
405.2029 1.467194
405.6851 0.8837360
406.1672 0.7587890
406.6493 1.600906
407.1314 2.172607
407.6135 2.060463
408.0956 1.616241
408.5778 1.183807
409.0599 0.8840330
409.5420 0.7197570
410.0241 0.7251280
410.5062 0.9342190
410.9883 1.130814
411.4705 1.267906
411.9526 1.398239
412.4347 1.641495
412.9168 1.938278
413.3989 2.032753
413.8810 1.604607
414.3632 0.8196640
414.8453 0.2780840
415.3274 1.7890999E-02
415.8095 7.0679002E-02
416.2916 0.2535170
416.7737 0.7780760
417.2559 1.341606
417.7380 2.038292
418.2201 2.480934
418.7022 2.085625
419.1843 0.9569930
419.6664 9.9463999E-02
420.1486 0.1645360
420.6307 5.9241999E-02
421.1128 0.1919020
421.5949 0.5898280
422.0770 0.9248350
422.5591 1.132858
423.0413 1.229782
423.5234 1.237373
424.0055 1.158028
424.4876 0.9752810
424.9697 0.6433490
425.4518 0.1881410
425.9340 0.1980210
426.4161 0.6319500
426.8982 0.8788530
427.3803 0.7521290
427.8624 0.3669130
428.3445 7.8171000E-02
428.8267 0.5246050
429.3088 0.8962780
429.7909 1.057106
430.2730 0.9213100
430.7551 0.7393340
431.2372 0.4043660
431.7194 0.1067350
432.2015 1.8340999E-02
432.6836 0.1181110
433.1657 0.2521360
433.6478 0.3038790
434.1299 0.2759320
434.6121 0.1943360
435.0942 5.2551001E-02
435.5763 0.2228780
436.0584 0.3211290
436.5405 0.3045730
437.0226 3.9565999E-02
437.5048 0.4974900
437.9869 1.039833
438.4690 1.129196
438.9511 0.5895540
439.4332 0.1599200
439.9153 0.2445300
440.3975 0.4497600
440.8796 0.1973570
441.3617 0.3437190
441.8438 0.7261510
442.3259 0.6026310
442.8080 0.1427990
443.2902 5.6030001E-02
443.7723 0.1440810
444.2544 0.2493060
444.7365 0.1032870
445.2186 0.5266420
445.7007 0.6337740
446.1829 0.3360060
446.6650 4.8668001E-02
447.1471 0.2857360
447.6292 0.3822100
448.1113 0.3340230
448.5934 3.7094001E-02
449.0756 0.2006450
449.5577 1.0399000E-02
450.0398 0.4657290
450.5219 0.8092190
451.0040 0.7893220
451.4861 0.6757510
451.9683 0.7829900
452.4504 1.065254
452.9325 1.187988
453.4146 0.9647450
453.8967 0.5520860
454.3788 0.2763670
454.8610 0.1093060
455.3431 0.1068800
455.8252 0.4744950
456.3073 0.9039540
456.7894 1.027313
457.2715 0.8099210
457.7537 0.5046080
458.2358 0.2957000
458.7179 0.1834490
459.2000 0.3027270
459.6821 0.8882830
460.1642 1.395683
460.6464 1.642570
461.1285 1.730690
461.6106 1.803543
462.0927 1.915848
462.5748 2.031326
463.0569 2.069328
463.5391 1.937798
464.0212 1.978561
464.5033 2.516830
464.9854 2.916275
465.4675 2.696983
465.9496 2.079048
466.4318 1.663834
466.9139 1.881645
467.3960 2.517593
467.8781 2.908615
468.3602 3.019577
468.8423 2.979759
469.3245 2.566948
469.8066 2.178696
470.2887 2.220894
470.7708 2.739578
471.2529 3.248230
471.7350 3.327408
472.2172 3.080414
472.6993 2.877441
473.1814 2.722664
473.6635 2.687332
474.1456 2.876099
474.6277 3.225868
475.1099 3.629997
475.5920 4.206078
476.0741 4.651634
476.5562 4.585266
477.0383 4.201370
477.5204 4.137947
478.0026 4.654984
478.4847 5.340065
478.9668 5.566513
479.4489 5.217842
479.9310 4.942200
480.4131 4.777016
480.8953 4.690163
481.3774 4.653358
481.8595 4.675385
482.3416 4.771172
482.8237 4.940407
483.3058 4.684265
483.7880 5.463638
484.2701 5.909431
484.7522 6.049805
485.2343 5.040741
485.7164 5.549850
486.1985 5.485428
486.6807 5.398193
487.1628 6.146034
487.6449 5.358162
488.1270 6.092598
488.6091 6.218155
489.0912 6.620407
489.5734 6.418770
490.0555 6.400948
490.5376 6.987862
491.0197 7.241459
491.5018 6.970665
491.9839 7.389194
492.4661 6.575218
492.9482 6.835060
493.4303 6.967464
493.9124 7.027264
494.3945 7.092823
494.8766 7.157497
495.3588 7.231709
495.8409 7.373837
496.3230 7.744804
496.8051 8.047035
497.2872 7.980286
497.7693 7.606956
498.2515 7.200878
498.7336 6.863518
499.2157 6.645348
499.6978 6.621696
500.1799 6.832748
500.6620 7.082890
501.1442 7.480595
501.6263 7.820644
502.1084 7.855350
502.5905 7.663300
503.0726 7.553532
503.5547 7.759254
504.0368 8.186111
504.5190 8.418011
505.0011 8.237629
505.4832 8.144325
505.9653 8.331150
506.4474 8.477097
506.9295 8.229221
507.4117 7.677277
507.8938 7.231098
508.3759 7.242210
508.8580 7.644974
509.3401 7.445087
509.8222 8.130054
510.3044 8.509956
510.7865 8.600754
511.2686 7.533203
511.7507 7.958038
512.2328 7.782772
512.7150 7.581818
513.1971 8.214359
513.6792 7.312447
514.1613 8.327282
514.6434 8.252998
515.1255 8.045128
515.6077 7.851383
516.0898 7.696373
516.5719 7.620365
517.0540 7.633556
517.5361 7.710247
518.0182 7.872879
518.5004 8.064518
518.9825 8.210518
519.4646 8.301552
519.9467 8.337296
520.4288 8.302597
520.9109 8.179405
521.3931 8.116753
521.8752 8.240292
522.3573 8.267708
522.8394 8.021217
523.3215 7.654915
523.8036 7.384155
524.2858 7.010994
524.7679 7.746391
525.2500 8.162304
525.7321 8.276047
526.2142 7.219852
526.6964 7.655491
527.1785 7.511589
527.6606 7.358421
528.1427 8.036224
528.6248 7.168774
529.1069 7.825809
529.5891 7.891998
530.0712 8.254581
530.5533 7.919209
531.0354 8.114254
531.5175 8.046543
531.9996 7.824337
532.4818 7.504066
532.9639 7.081799
533.4460 6.706371
533.9281 6.363415
534.4102 6.158077
534.8923 6.241337
535.3745 6.529541
535.8566 6.770691
536.3387 6.843513
536.8208 6.759663
537.3029 6.507401
537.7850 5.867115
538.2672 5.524620
538.7493 5.771797
539.2314 6.029984
539.7135 5.928307
540.1956 5.554249
540.6777 5.182011
541.1599 4.958282
541.6420 4.902439
542.1241 5.154762
542.6062 5.930218
543.0883 6.320160
543.5704 5.770622
544.0526 5.094334
544.5347 4.794731
545.0168 4.834080
545.4989 4.897846
545.9810 4.825737
546.4631 4.676487
546.9453 4.488251
547.4274 4.265419
547.9095 4.232414
548.3916 4.590309
548.8737 5.050697
549.3558 4.992199
549.8380 4.293056
550.3201 3.959030
550.8022 4.649410
551.2843 5.411282
551.7664 5.341602
552.2485 4.600578
552.7307 3.959808
553.2128 3.866642
553.6949 4.116314
554.1770 4.127411
554.6591 3.714035
555.1412 3.389515
555.6234 3.099007
556.1055 2.943710
556.5876 3.147644
557.0697 3.554878
557.5518 3.704052
558.0339 3.240948
558.5161 2.456486
558.9982 2.033318
559.4803 2.027298
559.9624 2.062099
560.4445 2.092678
560.9266 2.075054
561.4088 1.935818
561.8909 1.690414
562.3730 1.512936
562.8551 1.444508
563.3372 1.490910
563.8193 1.762909
564.3015 2.193970
564.7836 2.432709
565.2657 2.298332
565.7478 1.972660
566.2299 1.796352
566.7120 1.888039
567.1942 1.834274
567.6763 1.371128
568.1584 1.007710
568.6405 1.126198
569.1226 1.574467
569.6047 1.981861
570.0869 2.154911
570.5690 2.168697
571.0511 2.211857
571.5332 2.369839
572.0153 2.215881
572.4974 1.376091
572.9796 0.5443760
573.4617 8.0913998E-02
573.9438 8.5185997E-02
574.4259 0.1671180
574.9080 0.2530210
575.3901 0.2879370
575.8723 0.1558230
576.3544 0.1044200
576.8365 0.2681120
577.3186 0.2631990
577.8007 0.1741910
578.2828 7.9231001E-02
578.7650 2.2560000E-02
579.2471 9.5062003E-02
579.7292 7.3527999E-02
580.2113 9.0011999E-02
580.6934 0.2831380
581.1755 0.5348970
581.6577 0.6431080
582.1398 0.5429840
582.6219 0.3397670
583.1040 0.1507340
583.5861 4.2187002E-02
584.0682 7.3536001E-02
584.5504 0.2485010
585.0325 0.5028800
585.5145 0.4710080
585.9966 0.3391000
586.4788 0.3742070
586.9609 0.6589510
587.4430 0.9599800
587.9251 1.035725
588.4072 0.9409140
588.8893 0.9084850
589.3715 0.9871640
589.8536 0.9951780
590.3357 0.7518960
590.8178 0.3540570
591.2999 0.1454120
591.7820 0.2284010
592.2642 0.3087880
592.7463 0.3586350
593.2284 0.3228530
593.7105 4.5295998E-02
594.1926 0.4264980
594.6747 0.7738000
595.1569 0.7149850
595.6390 0.3532330
596.1211 0.2526510
596.6032 0.6278080
597.0853 0.8925860
597.5674 0.9385260
598.0496 0.8944170
598.5317 0.7637900
599.0138 0.6075590
599.4959 0.6240200
599.9780 1.035919
600.4601 1.625473
600.9423 1.980980
601.4244 2.100498
601.9065 2.150333
602.3886 2.134796
602.8707 2.144428
603.3528 2.358875
603.8350 2.783867
604.3171 3.062828
604.7992 2.984604
605.2813 2.902245
605.7634 3.042236
606.2455 3.349918
606.7277 3.733273
607.2098 4.150295
607.6919 4.487946
608.1740 4.501099
608.6561 4.042576
609.1382 4.075951
609.6204 5.228809
610.1025 6.154877
610.5846 6.299896
611.0667 6.030140
611.5488 5.789459
612.0309 5.691784
612.5131 5.789997
612.9952 6.163467
613.4773 6.772152
613.9594 7.638767
614.4415 8.852638
614.9236 9.623344
615.4058 9.232040
615.8879 8.123184
616.3700 7.759594
616.8521 8.509003
617.3342 9.153793
617.8163 9.198994
618.2985 8.863792
618.7806 9.789478
619.2627 10.40913
619.7448 10.73920
620.2269 9.912178
620.7090 10.57943
621.1912 10.64801
621.6733 10.69201
622.1554 11.56982
622.6375 10.91156
623.1196 11.77652
623.6017 11.52208
624.0839 11.08524
624.5660 10.80602
625.0481 11.08070
625.5302 11.35212
626.0123 10.91737
626.4944 9.996582
626.9766 9.349609
627.4587 9.157948
627.9408 9.201538
628.4229 9.326305
628.9050 9.527100
629.3871 9.526226
629.8693 9.047478
630.3514 8.748817
630.8335 8.893799
631.3156 9.191078
631.7977 9.373173
632.2798 9.399834
632.7620 9.363663
633.2441 9.327496
633.7262 9.314651
634.2083 9.402008
634.6904 9.613113
635.1725 9.765457
635.6547 9.666306
636.1368 9.612679
636.6189 10.01874
637.1010 10.83523
637.5831 11.36144
638.0652 11.13457
638.5474 10.73084
639.0295 10.60992
639.5116 10.70796
639.9937 10.81120
640.4758 10.84825
640.9579 10.94013
641.4401 11.27591
641.9222 11.89604
642.4043 12.25128
642.8864 12.04253
643.3685 11.94115
643.8506 12.06824
644.3328 12.37687
644.8149 12.82774
645.2970 13.40567
645.7791 14.07309
646.2612 14.86087
646.7433 15.69542
647.2255 16.44615
647.7076 17.11885
648.1897 17.49175
648.6718 17.33229
649.1539 17.00230
649.6360 17.12349
650.1182 17.75678
650.6003 18.49239
651.0824 19.31884
651.5645 20.24843
652.0466 21.37385
652.5287 22.55624
653.0109 23.52676
653.4930 24.19858
653.9751 24.81250
654.4572 25.72854
654.9393 26.95860
655.4214 27.92059
655.9036 28.29848
656.3857 29.02866
656.8678 31.10482
657.3499 33.48450
657.8320 34.91953
658.3141 35.19492
658.7963 35.44385
659.2784 36.04517
659.7605 36.96366
660.2426 38.21800
660.7247 39.76543
