#Shining_header
#Data type:raman_database
#CAS:Not entered
#Material scientific name:Mooreite
#Manufacturer:Not entered
#Laser model:Not entered
#Spectrometer model:Not entered
#Testing unit:Not entered
#Test time:Not entered
#Other experimental details:Not entered
#Shining_data
107.9303 0.0000000E+00
108.4124 6.4119004E-02
108.8945 5.9916001E-02
109.3766 0.1067450
109.8588 0.1660210
110.3409 0.4257580
110.8230 0.5135630
111.3051 0.4459800
111.7872 0.2425820
112.2693 3.0384000E-02
112.7515 5.5190001E-02
113.2336 4.9878001E-02
113.7157 0.2724070
114.1978 0.5542240
114.6799 0.8560510
115.1620 1.103527
115.6442 1.251526
116.1263 1.303571
116.6084 1.308262
117.0905 1.232508
117.5726 1.140593
118.0547 1.072813
118.5369 1.041660
119.0190 1.031655
119.5011 1.002139
119.9832 0.8875590
120.4653 0.9176340
120.9474 1.137551
121.4296 1.477365
121.9117 1.929094
122.3938 2.490214
122.8759 3.085952
123.3580 3.477448
123.8401 3.479935
124.3223 3.477589
124.8044 3.445627
125.2865 3.425881
125.7686 3.480964
126.2507 3.654360
126.7328 3.947771
127.2150 4.293410
127.6971 4.685307
128.1792 5.249063
128.6613 5.917051
129.1434 6.660754
129.6255 7.457476
130.1077 8.317450
130.5898 9.215457
131.0719 10.05370
131.5540 11.06702
132.0361 11.92275
132.5182 12.25343
133.0004 11.99664
133.4825 11.36887
133.9646 10.37659
134.4467 9.141996
134.9288 7.914596
135.4109 6.763305
135.8931 5.709391
136.3752 4.757435
136.8573 3.878311
137.3394 3.169663
137.8215 2.721810
138.3036 2.480852
138.7858 2.285471
139.2679 1.989681
139.7500 1.572695
140.2321 1.231115
140.7142 0.9927270
141.1963 0.8093930
141.6785 0.6777860
142.1606 0.5915050
142.6427 0.5322510
143.1248 0.4793130
143.6069 0.4387990
144.0890 0.3835330
144.5712 0.2881770
145.0533 0.1996320
145.5354 0.1672990
146.0175 0.1958580
146.4996 0.2313880
146.9817 0.1772000
147.4639 6.8388000E-02
147.9460 0.2428480
148.4281 0.3083210
148.9102 0.3060630
149.3923 0.2826100
149.8744 0.2534880
150.3566 0.2202440
150.8387 0.1890200
151.3208 0.1696410
151.8029 0.1406150
152.2850 8.3793998E-02
152.7671 7.8349998E-03
153.2493 5.9041001E-02
153.7314 0.1070840
154.2135 0.1362460
154.6956 0.1501050
155.1777 0.1417750
155.6598 0.1339830
156.1420 0.1422500
156.6241 0.1664330
157.1062 0.2065550
157.5883 0.2771480
158.0704 0.3580000
158.5525 0.4356780
159.0347 0.5100350
159.5168 0.5716990
159.9989 0.6019240
160.4810 0.5868530
160.9631 0.5734330
161.4452 0.6053280
161.9274 0.6335330
162.4095 0.5954360
162.8916 0.4536310
163.3737 0.2566290
163.8558 0.1663780
164.3379 0.2646610
164.8201 0.3730760
165.3022 0.4768130
165.7843 0.6159550
166.2664 0.7305820
166.7485 0.8170970
167.2306 0.8770690
167.7128 0.9172990
168.1949 0.9086990
168.6770 0.9118170
169.1591 0.9466430
169.6412 1.003002
170.1233 1.061951
170.6055 1.112607
171.0876 1.162757
171.5697 1.176324
172.0518 1.123657
172.5339 1.068694
173.0160 1.040741
173.4982 1.037402
173.9803 1.041559
174.4624 1.044130
174.9445 1.043234
175.4266 1.027602
175.9087 0.9868450
176.3909 0.9377880
176.8730 0.8874550
177.3551 0.8354920
177.8372 0.7991390
178.3193 0.8007480
178.8014 0.8321340
179.2836 0.8701540
179.7657 0.9229330
180.2478 0.9736140
180.7299 0.9972650
181.2120 0.9909420
181.6941 0.9628440
182.1763 0.8831860
182.6584 0.7864320
183.1405 0.7435180
183.6226 0.8192850
184.1047 0.9746250
184.5868 1.078038
185.0690 1.100862
185.5511 1.110478
186.0332 1.143682
186.5153 1.188742
186.9974 1.222376
187.4795 1.225363
187.9617 1.200300
188.4438 1.183183
188.9259 1.164773
189.4080 1.166585
189.8901 1.196882
190.3722 1.252568
190.8544 1.330599
191.3365 1.439270
191.8186 1.586304
192.3007 1.654076
192.7828 1.538727
193.2649 1.442695
193.7471 1.450892
194.2292 1.544644
194.7113 1.650898
195.1934 1.699365
195.6755 1.674844
196.1576 1.691103
196.6398 1.769564
197.1219 1.857808
197.6040 1.943088
198.0861 2.018064
198.5682 2.068194
199.0503 2.074083
199.5325 2.025310
200.0146 1.993550
200.4967 1.969866
200.9788 1.967581
201.4609 2.007311
201.9430 2.087195
202.4252 2.171507
202.9073 2.228232
203.3894 2.254679
203.8715 2.268266
204.3536 2.266785
204.8357 2.252729
205.3179 2.217486
205.8000 2.159244
206.2821 2.096007
206.7642 2.039603
207.2463 1.991768
207.7284 1.959030
208.2106 1.945443
208.6927 1.946961
209.1748 1.957579
209.6569 1.977443
210.1390 2.009578
210.6211 2.070803
211.1033 2.146391
211.5854 2.201085
212.0675 2.213709
212.5496 2.197503
213.0317 2.175728
213.5138 2.135312
213.9960 2.118835
214.4781 2.164842
214.9602 2.252465
215.4423 2.340869
215.9244 2.408444
216.4065 2.459624
216.8886 2.512484
217.3708 2.578128
217.8529 2.624859
218.3350 2.634152
218.8171 2.617915
219.2992 2.597472
219.7813 2.581636
220.2635 2.570724
220.7456 2.574476
221.2277 2.616227
221.7098 2.644077
222.1919 2.639024
222.6740 2.611199
223.1562 2.579338
223.6383 2.556740
224.1204 2.541576
224.6025 2.517163
225.0846 2.462178
225.5667 2.420282
226.0489 2.434418
226.5310 2.466800
227.0131 2.442013
227.4952 2.295887
227.9773 2.042330
228.4594 1.897359
228.9416 1.996406
229.4237 2.068760
229.9058 2.034572
230.3879 1.928927
230.8700 1.824556
231.3521 1.770560
231.8343 1.763235
232.3164 1.744506
232.7985 1.735472
233.2806 1.694119
233.7627 1.569202
234.2448 1.403040
234.7270 1.283690
235.2091 1.273301
235.6912 1.356773
236.1733 1.387257
236.6554 1.340935
237.1375 1.279110
237.6197 1.213894
238.1018 1.147601
238.5839 1.079624
239.0660 1.007190
239.5481 0.9349720
240.0302 0.8890190
240.5124 0.8775940
240.9945 0.8779690
241.4766 0.8870140
241.9587 0.9042510
242.4408 0.9299550
242.9229 0.9699760
243.4051 1.013897
243.8872 1.022615
244.3693 0.9539220
244.8514 0.8991400
245.3335 0.9176890
245.8156 0.9924780
246.2978 1.064350
246.7799 1.109162
247.2620 1.124126
247.7441 1.107619
248.2262 1.041283
248.7083 0.9880960
249.1905 0.9882880
249.6726 1.032892
250.1547 1.086411
250.6368 1.140488
251.1189 1.181773
251.6010 1.193844
252.0832 1.180282
252.5653 1.178963
253.0474 1.218704
253.5295 1.284672
254.0116 1.318596
254.4937 1.285518
254.9759 1.241092
255.4580 1.247433
255.9401 1.305489
256.4222 1.378397
256.9043 1.460471
257.3864 1.544730
257.8686 1.587665
258.3507 1.561447
258.8328 1.514331
259.3149 1.488571
259.7970 1.482501
260.2791 1.482045
260.7613 1.481922
261.2434 1.481157
261.7255 1.475961
262.2076 1.475107
262.6897 1.455108
263.1718 1.389969
263.6540 1.292261
264.1361 1.206016
264.6182 1.168141
265.1003 1.169854
265.5824 1.159019
266.0645 1.141754
266.5467 1.098895
267.0288 0.9950700
267.5109 0.8611470
267.9930 0.7673010
268.4751 0.7801660
268.9572 0.8679420
269.4394 0.8764300
269.9215 0.7364260
270.4036 0.6198840
270.8857 0.6132390
271.3678 0.6667960
271.8499 0.7034750
272.3321 0.6803620
272.8142 0.6123220
273.2963 0.5447340
273.7784 0.4521740
274.2605 0.4079630
274.7426 0.4683200
275.2248 0.5683580
275.7069 0.6257810
276.1890 0.5985420
276.6711 0.5223090
277.1532 0.4918270
277.6353 0.5376050
278.1175 0.5735720
278.5996 0.5739100
279.0817 0.5624760
279.5638 0.5630430
280.0459 0.5844620
280.5280 0.6157140
281.0102 0.6351430
281.4923 0.6356750
281.9744 0.6389120
282.4565 0.6427690
282.9386 0.6525370
283.4207 0.6713140
283.9029 0.7002310
284.3850 0.7399260
284.8671 0.7952810
285.3492 0.8805200
285.8313 0.9454310
286.3134 1.009353
286.7956 1.040569
287.2777 0.9944700
287.7598 0.8795890
288.2419 0.7627160
288.7240 0.7280960
289.2061 0.8055580
289.6883 0.8577740
290.1704 0.8978310
290.6525 0.9041360
291.1346 0.8521830
291.6167 0.7515730
292.0988 0.6348900
292.5810 0.5271850
293.0631 0.4256240
293.5452 0.3662950
294.0273 0.3884020
294.5094 0.4131450
294.9915 0.4228560
295.4737 0.4144160
295.9558 0.3874990
296.4379 0.3408040
296.9200 0.2751580
297.4021 0.2067900
297.8842 0.1226630
298.3664 4.9764998E-02
298.8485 8.6000000E-05
299.3306 3.6166001E-02
299.8127 7.6779000E-02
300.2948 0.1337060
300.7769 0.1949530
301.2591 0.2097310
301.7412 9.7188003E-02
302.2233 3.4944002E-02
302.7054 7.9400003E-02
303.1875 0.1659220
303.6696 0.2241770
304.1518 0.2254090
304.6339 0.1896760
305.1160 0.1581940
305.5981 0.1187540
306.0802 0.1052070
306.5623 0.1597250
307.0445 0.2134800
307.5266 0.1891410
308.0087 7.7081002E-02
308.4908 4.5550000E-02
308.9729 6.0052000E-02
309.4550 0.1081540
309.9372 0.1961900
310.4193 0.1737790
310.9014 0.1109580
311.3835 3.5737999E-02
311.8656 4.1274998E-02
312.3477 0.1083200
312.8299 0.1487790
313.3120 0.1532790
313.7941 0.1982280
314.2762 0.3530260
314.7583 0.4756780
315.2404 0.4820080
315.7226 0.4053460
316.2047 0.3392750
316.6868 0.3568120
317.1689 0.4502330
317.6510 0.4971800
318.1331 0.4220400
318.6153 0.3844240
319.0974 0.4571290
319.5795 0.5814660
320.0616 0.6601020
320.5437 0.6401780
321.0258 0.5580900
321.5080 0.5352730
321.9901 0.6327400
322.4722 0.7178320
322.9543 0.7960970
323.4364 0.8527410
323.9185 0.8642570
324.4007 0.8252030
324.8828 0.7652030
325.3649 0.7372940
325.8470 0.7676820
326.3291 0.7808190
326.8112 0.7576950
327.2934 0.7337620
327.7755 0.7317910
328.2576 0.7549600
328.7397 0.7951730
329.2218 0.8466700
329.7039 0.9162320
330.1861 0.9626880
330.6682 0.9714570
331.1503 0.9741110
331.6324 0.9797040
332.1145 0.9903900
332.5966 1.007740
333.0788 1.034072
333.5609 1.068158
334.0430 1.091549
334.5251 1.103051
335.0072 1.104118
335.4893 1.086787
335.9715 1.061253
336.4536 1.038376
336.9357 1.023281
337.4178 1.019572
337.8999 1.040305
338.3820 1.117654
338.8642 1.172574
339.3463 1.203963
339.8284 1.212801
340.3105 1.186029
340.7926 1.123534
341.2747 1.057036
341.7568 1.041034
342.2390 1.106488
342.7211 1.150970
343.2032 1.155778
343.6853 1.150387
344.1674 1.156502
344.6495 1.175923
345.1317 1.193398
345.6138 1.185699
346.0959 1.145062
346.5780 1.132462
347.0601 1.174729
347.5422 1.225827
348.0244 1.266552
348.5065 1.308435
348.9886 1.380466
349.4707 1.506688
349.9528 1.664062
350.4349 1.748430
350.9171 1.672086
351.3992 1.662055
351.8813 1.786252
352.3634 1.977201
352.8455 2.177144
353.3276 2.365758
353.8098 2.536525
354.2919 2.673687
354.7740 2.765724
355.2561 2.858509
355.7382 2.987337
356.2203 3.094904
356.7025 3.132793
357.1846 3.104629
357.6667 3.061950
358.1488 3.077057
358.6309 3.155770
359.1130 3.124408
359.5952 2.902206
360.0773 2.666095
360.5594 2.478191
361.0415 2.324677
361.5236 2.178504
362.0057 2.026052
362.4879 1.875568
362.9700 1.747042
363.4521 1.655986
363.9342 1.553373
364.4163 1.392783
364.8984 1.220163
365.3806 1.093909
365.8627 1.039379
366.3448 1.012474
366.8269 0.9375030
367.3090 0.7939710
367.7911 0.6913660
368.2733 0.6910030
368.7554 0.7270050
369.2375 0.7570810
369.7196 0.7779060
370.2017 0.7905270
370.6838 0.7792890
371.1660 0.7555180
371.6481 0.7817180
372.1302 0.8877580
372.6123 0.9991960
373.0944 1.038672
373.5765 1.045260
374.0587 1.112219
374.5408 1.316891
375.0229 1.572281
375.5050 1.738245
375.9871 1.802194
376.4692 1.882364
376.9514 2.079611
377.4335 2.303367
377.9156 2.409984
378.3977 2.346210
378.8798 2.273912
379.3619 2.344617
379.8441 2.516528
380.3262 2.607544
380.8083 2.562157
381.2904 2.427370
381.7725 2.236018
382.2546 1.990685
382.7368 1.776190
383.2189 1.636196
383.7010 1.535014
384.1831 1.422412
384.6652 1.291697
385.1473 1.165972
385.6295 1.061208
386.1116 0.9779330
386.5937 0.9038510
387.0758 0.8483500
387.5579 0.7935540
388.0400 0.7244950
388.5222 0.6463690
389.0043 0.5771520
389.4864 0.5272210
389.9685 0.4883500
390.4506 0.4372380
390.9327 0.3566350
391.4149 0.3024790
391.8970 0.3064310
392.3791 0.3339290
392.8612 0.3484900
393.3433 0.3413640
393.8254 0.3141500
394.3076 0.2662280
394.7897 0.1924540
395.2718 0.1229530
395.7539 5.9716001E-02
396.2360 1.8050000E-03
396.7181 7.0357002E-02
397.2003 0.1399840
397.6824 0.1920050
398.1645 0.2133150
398.6466 0.2102660
399.1287 0.2154240
399.6108 0.2620470
400.0930 0.2758310
400.5751 0.2106730
401.0572 0.1267810
401.5393 9.9762000E-02
402.0214 0.1485590
402.5035 0.2166790
402.9857 0.2170950
403.4678 0.1183730
403.9499 4.1666999E-02
404.4320 5.6840000E-03
404.9141 4.1650001E-02
405.3962 5.1242001E-02
405.8784 5.4326002E-02
406.3605 9.8324001E-02
406.8426 0.2211240
407.3247 0.4144120
407.8068 0.6172750
408.2889 0.8550270
408.7711 1.061957
409.2532 1.210146
409.7353 1.329366
410.2174 1.438235
410.6995 1.542738
411.1816 1.675693
411.6638 1.899505
412.1459 2.232895
412.6280 2.551061
413.1101 2.845932
413.5922 3.110945
414.0743 3.333451
414.5565 3.518325
415.0386 3.687845
415.5207 3.848604
416.0028 4.004887
416.4849 4.177382
416.9670 4.379391
417.4492 4.564167
417.9313 4.697904
418.4134 4.803222
418.8955 4.905869
419.3776 5.011969
419.8597 5.117191
420.3419 5.229316
420.8240 5.344199
421.3061 5.416100
421.7882 5.409016
422.2703 5.384995
422.7524 5.420816
423.2346 5.514087
423.7167 5.611746
424.1988 5.694794
424.6809 5.771165
425.1630 5.826693
425.6451 5.859022
426.1273 5.965437
426.6094 6.236348
427.0915 6.647610
427.5736 7.026642
428.0557 7.347353
428.5378 7.664613
429.0200 7.990964
429.5021 8.331611
429.9842 8.691698
430.4663 9.073115
430.9484 9.484501
431.4305 9.947952
431.9127 10.51418
432.3948 11.00459
432.8769 11.37546
433.3590 11.70034
433.8411 12.05276
434.3232 12.41632
434.8054 12.71119
435.2875 12.87386
435.7696 12.91035
436.2517 12.88238
436.7338 12.77177
437.2159 12.61336
437.6981 12.41834
438.1802 12.17517
438.6623 11.85620
439.1444 11.45710
439.6265 11.01955
440.1086 10.60772
440.5908 10.23602
441.0729 9.843656
441.5550 9.393164
442.0371 8.953143
442.5192 8.546963
443.0013 8.176560
443.4835 7.845160
443.9656 7.570153
444.4477 7.323372
444.9298 7.014703
445.4119 6.608219
445.8940 6.228419
446.3762 5.902550
446.8583 5.627366
447.3404 5.418131
447.8225 5.278709
448.3046 5.164599
448.7867 5.040982
449.2689 4.911054
449.7510 4.781088
450.2331 4.628010
450.7152 4.525171
451.1973 4.569157
451.6794 4.711348
452.1616 4.831248
452.6437 4.888954
453.1258 4.917667
453.6079 4.922605
454.0900 4.913176
454.5721 4.968100
455.0543 5.146723
455.5364 5.375290
456.0185 5.510729
456.5006 5.562734
456.9827 5.531504
457.4648 5.361960
457.9470 5.138607
458.4291 4.954645
458.9112 4.820052
459.3933 4.684602
459.8754 4.504238
460.3575 4.278875
460.8397 4.059669
461.3218 3.858034
461.8039 3.656324
462.2860 3.444372
462.7681 3.228388
463.2502 3.017521
463.7324 2.815436
464.2145 2.623927
464.6966 2.443866
465.1787 2.270674
465.6608 2.127224
466.1429 2.053356
466.6251 1.969536
467.1072 1.831204
467.5893 1.653483
468.0714 1.473621
468.5535 1.309835
469.0356 1.167275
469.5178 1.065720
469.9999 1.022018
470.4820 0.9734840
470.9641 0.8937680
471.4462 0.8092190
471.9283 0.7364930
472.4105 0.6783290
472.8926 0.6347500
473.3747 0.6227380
473.8568 0.6274480
474.3389 0.5868760
474.8210 0.4828580
475.3032 0.3762640
475.7853 0.3050040
476.2674 0.2600960
476.7495 0.2295480
477.2316 0.2264550
477.7137 0.2149000
478.1959 0.1555480
478.6780 6.7206003E-02
479.1601 9.2299999E-04
479.6422 2.8331000E-02
480.1243 2.7303001E-02
480.6064 2.1830001E-03
481.0886 6.6138998E-02
481.5707 0.1183180
482.0528 0.1521770
482.5349 0.1770070
483.0170 0.1931800
483.4991 0.2048850
483.9813 0.2235100
484.4634 0.2563570
484.9455 0.2967310
485.4276 0.3246390
485.9097 0.3284920
486.3918 0.3362060
486.8740 0.3485970
487.3561 0.3645290
487.8382 0.3847340
488.3203 0.4081760
488.8024 0.4333010
489.2845 0.4639490
489.7667 0.4959990
490.2488 0.4822790
490.7309 0.3696400
491.2130 0.2992640
491.6951 0.3313280
492.1772 0.4067620
492.6594 0.4725530
493.1415 0.5152490
493.6236 0.5323050
494.1057 0.5036410
494.5878 0.4375000
495.0699 0.4082170
495.5521 0.4337000
496.0342 0.4773110
496.5163 0.5063300
496.9984 0.5326310
497.4805 0.5863740
497.9626 0.6869770
498.4448 0.8031480
498.9269 0.8325910
499.4090 0.7554500
499.8911 1.055942
500.3732 1.309668
500.8553 1.519150
501.3375 1.552119
501.8196 1.816550
502.3017 1.990753
502.7838 2.161318
503.2659 2.460063
503.7480 2.525325
504.2302 2.824243
504.7123 3.029130
505.1944 3.179525
505.6765 3.299645
506.1586 3.428975
506.6407 3.587608
507.1228 3.722069
507.6049 3.838805
508.0871 3.931162
508.5692 4.001796
509.0513 4.044491
509.5334 4.042650
510.0155 3.980281
510.4977 3.861252
510.9798 3.708578
511.4619 3.508873
511.9440 3.320968
512.4261 3.195191
512.9083 3.072109
513.3904 2.886957
513.8725 2.628585
514.3546 2.376975
514.8367 2.195513
515.3188 2.062882
515.8010 1.914655
516.2831 1.741937
516.7652 1.586347
517.2473 1.473707
517.7294 1.395473
518.2115 1.328048
518.6937 1.296935
519.1758 1.239366
519.6579 1.079716
520.1400 0.8903520
520.6221 0.7940340
521.1042 0.8190380
521.5864 0.9058890
522.0685 0.9971190
522.5506 1.095993
523.0327 1.175115
523.5148 1.224335
523.9969 1.258689
524.4791 1.265320
524.9612 1.273355
525.4433 1.328568
525.9254 1.444759
526.4075 1.581984
526.8896 1.668322
527.3718 1.681675
527.8539 1.756046
528.3360 1.936017
528.8181 2.133568
529.3002 2.325136
529.7823 2.505558
530.2645 2.663693
530.7466 2.785084
531.2287 2.905965
531.7108 3.082685
532.1929 3.310670
532.6750 3.521801
533.1572 3.703959
533.6393 3.857564
534.1214 3.987193
534.6035 4.092488
535.0856 4.154390
535.5677 4.149597
536.0499 4.116979
536.5320 4.072873
537.0141 4.024208
537.4962 3.993030
537.9783 3.992006
538.4604 3.995462
538.9426 3.962506
539.4247 3.904669
539.9068 3.767670
540.3889 3.466008
540.8710 3.173201
541.3531 2.998375
541.8353 2.904198
542.3174 2.784310
542.7995 2.578009
543.2816 2.333270
543.7637 2.165335
544.2458 2.102929
544.7280 2.018553
545.2101 1.886927
545.6922 1.735856
546.1743 1.557930
546.6564 1.369045
547.1385 1.223730
547.6207 1.176790
548.1028 1.162004
548.5849 1.062935
549.0670 0.8838230
549.5491 0.7533790
550.0313 0.7399310
550.5134 0.7637990
550.9955 0.6940620
551.4776 0.5273170
551.9597 0.3920940
552.4418 0.3424060
552.9240 0.3092880
553.4061 0.2143240
553.8882 8.5331000E-02
554.3703 3.0822000E-02
554.8524 0.1125630
555.3345 0.2582250
555.8167 0.2972100
556.2988 0.1421770
556.7809 5.0668001E-02
557.2630 7.0956998E-02
557.7451 0.1007360
558.2272 7.9470001E-02
558.7094 2.0251000E-02
559.1915 3.1535000E-02
559.6736 4.9922001E-02
560.1557 4.8252001E-02
560.6378 5.5877998E-02
561.1199 7.6021999E-02
561.6021 8.3594002E-02
562.0842 6.4250998E-02
562.5663 3.9717998E-02
563.0484 2.7773000E-02
563.5305 2.6714999E-02
564.0126 2.6883001E-02
564.4948 1.4856000E-02
564.9769 9.6960003E-03
565.4590 4.3140002E-02
565.9411 0.1046990
566.4232 0.1474460
566.9053 0.1546050
567.3875 0.1310290
567.8696 7.7441998E-02
568.3517 2.5752001E-02
568.8338 8.9197002E-02
569.3159 9.9365003E-02
569.7980 8.3282001E-02
570.2802 3.9547998E-02
570.7623 1.7368000E-02
571.2444 6.6995002E-02
571.7265 9.9711999E-02
572.2086 0.1138700
572.6907 9.8292999E-02
573.1729 3.7797000E-02
573.6550 9.8510003E-03
574.1371 5.6269001E-02
574.6192 9.5353998E-02
575.1013 8.5010998E-02
575.5834 4.1402001E-02
576.0656 2.2950000E-03
576.5477 3.5817999E-02
577.0298 6.0116999E-02
577.5119 7.5677000E-02
577.9940 8.2776003E-02
578.4761 8.2170002E-02
578.9583 7.3285997E-02
579.4404 5.7948999E-02
579.9225 2.5655000E-02
580.4046 1.8825000E-02
580.8867 1.1182000E-02
581.3688 0.1133170
581.8510 0.2211260
582.3331 0.2463890
582.8152 0.2215170
583.2973 0.1874200
583.7794 0.1587990
584.2615 0.1459590
584.7437 0.1645230
585.2258 0.2169540
585.7079 0.2569040
586.1900 0.2830620
586.6721 0.2974460
587.1542 0.2763210
