#Shining_header
#Data type:raman_database
#CAS:Not entered
#Material scientific name:Phillipsite-Ca
#Manufacturer:Not entered
#Laser model:Not entered
#Spectrometer model:Not entered
#Testing unit:Not entered
#Test time:Not entered
#Other experimental details:Not entered
#Shining_data
152.7720 0.0000000E+00
153.2542 8.2855001E-02
153.7363 0.1402590
154.2184 0.1096800
154.7005 0.2400670
155.1826 0.7905270
155.6647 1.626129
156.1469 2.036377
156.6290 1.571640
157.1111 1.159424
157.5932 0.9457550
158.0753 1.026108
158.5574 1.245956
159.0396 1.395050
159.5217 1.598007
160.0038 1.703079
160.4859 1.532059
160.9680 1.579117
161.4501 1.916367
161.9323 2.462570
162.4144 3.034103
162.8965 3.587021
163.3786 3.740143
163.8607 3.713776
164.3428 4.053505
164.8250 4.436096
165.3071 4.521507
165.7892 4.121689
166.2713 3.511597
166.7534 3.323418
167.2355 3.597519
167.7177 3.530838
168.1998 2.715805
168.6819 1.625114
169.1640 0.9867780
169.6461 1.011566
170.1282 1.262672
170.6104 1.285385
171.0925 1.081490
171.5746 0.7909850
172.0567 0.3625260
172.5388 0.1318590
173.0209 0.4705730
173.5031 0.6382600
173.9852 0.5763170
174.4673 0.1830370
174.9494 0.5047840
175.4315 1.127769
175.9136 1.441269
176.3958 1.450974
176.8779 1.299736
177.3600 0.7015150
177.8421 0.2107320
178.3242 0.2364580
178.8063 0.7526170
179.2885 1.357979
179.7706 1.584579
180.2527 1.295227
180.7348 1.219406
181.2169 1.655418
181.6990 2.128860
182.1812 2.349426
182.6633 2.302124
183.1454 2.208298
183.6275 2.432899
184.1096 3.244904
184.5917 3.838348
185.0738 4.063637
185.5560 4.185074
186.0381 4.424309
186.5202 4.820358
187.0023 5.246880
187.4844 5.513466
187.9665 5.243690
188.4487 5.382957
188.9308 6.405815
189.4129 7.605003
189.8950 8.257469
190.3771 8.201019
190.8592 7.903473
191.3414 7.764366
191.8235 7.943314
192.3056 8.285660
192.7877 8.986115
193.2698 9.815742
193.7519 10.41889
194.2341 10.68163
194.7162 10.74850
195.1983 10.87227
195.6804 11.10442
196.1625 11.21988
196.6446 11.02546
197.1268 10.65054
197.6089 10.44322
198.0910 10.57951
198.5731 10.85236
199.0552 10.91764
199.5373 10.74651
200.0195 10.54256
200.5016 10.35705
200.9837 10.20824
201.4658 10.22588
201.9479 10.58670
202.4300 10.99038
202.9122 11.14453
203.3943 11.05807
203.8764 10.76398
204.3585 10.15513
204.8406 9.239639
205.3227 8.559288
205.8048 8.347435
206.2870 8.379730
206.7691 8.536057
207.2512 8.765671
207.7333 8.970634
208.2154 8.974754
208.6975 8.720108
209.1797 8.456688
209.6618 8.376839
210.1439 8.201981
210.6260 7.829788
211.1081 7.106468
211.5902 6.320465
212.0724 5.857559
212.5545 5.835220
213.0366 5.804718
213.5187 5.829109
214.0008 5.771683
214.4829 5.509743
214.9651 5.034607
215.4472 4.458939
215.9293 3.924942
216.4114 3.346840
216.8935 3.019966
217.3756 3.176392
217.8578 3.375389
218.3399 3.248260
218.8220 2.744888
219.3041 2.143608
219.7862 1.896927
220.2683 2.331711
220.7505 2.490944
221.2326 2.124550
221.7147 1.670578
222.1968 1.512733
222.6789 1.721939
223.1610 2.037193
223.6432 2.072594
224.1253 1.639862
224.6074 1.295967
225.0895 1.041000
225.5716 0.8752670
226.0537 0.8861620
226.5358 1.074265
227.0180 1.193954
227.5001 0.8350070
227.9822 0.2856370
228.4643 0.9313200
228.9464 0.7926860
229.4285 0.2575910
229.9107 0.3658370
230.3928 1.007370
230.8749 1.522209
231.3570 1.693848
231.8391 1.515327
232.3212 1.291534
232.8034 0.9331210
233.2855 0.5912250
233.7676 0.5334630
234.2497 0.8432240
234.7318 1.203568
235.2139 1.193230
235.6961 0.8618770
236.1782 0.6208880
236.6603 0.6025920
237.1424 0.7352600
237.6245 0.9576340
238.1066 1.307770
238.5888 1.568008
239.0709 1.423401
239.5530 1.000618
240.0351 0.6712720
240.5172 0.5605090
240.9993 0.6186520
241.4815 0.7762600
241.9636 1.056656
242.4457 1.379532
242.9278 1.758446
243.4099 2.138130
243.8920 2.376640
244.3742 2.323860
244.8563 2.103706
245.3384 2.006744
245.8205 2.078468
246.3026 2.169212
246.7847 2.204063
247.2668 2.199421
247.7490 2.190865
248.2311 2.223690
248.7132 2.248745
249.1953 2.126862
249.6774 1.794304
250.1595 1.441902
250.6417 1.049267
251.1238 0.7130010
251.6059 0.5964970
252.0880 0.8331380
252.5701 1.255066
253.0522 1.416245
253.5344 1.168186
254.0165 0.9458540
254.4986 0.9160800
254.9807 0.9652900
255.4628 0.9689290
255.9449 0.8721500
256.4271 0.7100450
256.9092 0.5598450
257.3913 0.4249690
257.8734 0.2971990
258.3555 0.1420780
258.8376 6.3319998E-03
259.3198 0.1032450
259.8019 0.1849670
260.2840 0.1587720
260.7661 0.2183300
261.2482 1.388107
261.7303 2.037159
262.2125 1.625385
262.6946 0.9521140
263.1767 0.7231940
263.6588 1.144848
264.1409 1.856594
264.6230 2.227535
265.1052 2.131554
265.5873 1.904430
266.0694 1.304337
266.5515 0.7693440
267.0336 0.6940990
267.5157 1.135380
267.9979 1.783543
268.4800 2.177753
268.9621 2.178871
269.4442 2.210464
269.9263 2.319138
270.4084 2.421680
270.8906 2.428146
271.3727 2.346550
271.8548 2.287361
272.3369 2.394825
272.8190 2.740166
273.3011 3.021347
273.7833 3.247955
274.2654 3.419418
274.7475 3.481236
275.2296 3.467796
275.7117 3.509247
276.1938 3.754810
276.6760 4.270977
277.1581 4.570690
277.6402 4.690975
278.1223 4.626713
278.6044 4.180542
279.0865 3.493599
279.5686 2.994259
280.0508 3.063114
280.5329 3.717628
281.0150 4.161942
281.4971 4.370972
281.9792 4.436363
282.4613 4.266041
282.9435 3.973679
283.4256 3.811058
283.9077 3.957176
284.3898 4.373226
284.8719 4.694004
285.3540 4.840137
285.8362 4.955845
286.3183 5.162285
286.8004 5.402103
287.2825 5.460335
287.7646 5.175468
288.2467 4.676891
288.7289 4.466393
289.2110 4.859276
289.6931 5.124092
290.1752 5.036800
290.6573 4.782837
291.1394 4.637787
291.6216 4.716652
292.1037 4.911297
292.5858 4.994991
293.0679 4.948006
293.5500 4.815842
294.0321 4.454884
294.5143 4.074558
294.9964 3.965816
295.4785 4.204338
295.9606 4.533951
296.4427 4.562748
296.9248 4.098537
297.4070 3.926842
297.8891 4.397804
298.3712 5.001026
298.8533 4.681529
299.3354 5.414074
299.8175 5.891823
300.2997 6.128489
300.7818 5.401844
301.2639 5.919065
301.7460 5.937810
302.2281 5.936106
302.7102 5.901859
303.1924 6.230297
303.6745 6.694565
304.1566 6.980255
304.6387 7.088108
305.1208 6.995407
305.6029 6.395821
306.0851 5.843662
306.5672 5.780952
307.0493 6.076664
307.5314 5.798607
308.0135 6.408348
308.4956 6.763285
308.9778 6.877115
309.4599 6.027666
309.9420 6.422082
310.4241 6.318016
310.9062 6.193506
311.3883 6.762993
311.8705 5.510463
312.3526 6.275314
312.8347 6.785364
313.3168 7.054315
313.7989 5.842030
314.2810 5.485008
314.7632 5.395592
315.2453 5.403088
315.7274 5.463028
316.2095 5.567085
316.6916 5.721481
317.1737 5.899120
317.6559 6.046829
318.1380 6.388039
318.6201 6.668938
319.1022 6.465595
319.5843 5.694759
320.0664 4.906391
320.5485 4.707058
321.0306 5.173054
321.5128 5.515713
321.9949 5.756485
322.4770 5.867020
322.9591 5.803749
323.4412 5.594398
323.9233 5.304741
324.4055 4.935295
324.8876 4.507797
325.3697 4.267868
325.8518 4.349628
326.3339 4.455971
326.8160 4.468643
327.2982 4.417824
327.7803 4.381962
328.2624 4.401539
328.7445 4.466125
329.2266 4.555759
329.7087 4.794594
330.1909 4.841480
330.6730 4.467384
331.1551 3.924809
331.6372 3.526764
332.1193 3.363850
332.6014 3.370750
333.0836 3.491814
333.5657 3.834560
334.0478 3.941971
334.5299 3.566811
335.0120 3.103638
335.4941 2.924782
335.9763 3.050179
336.4584 3.167660
336.9405 2.952000
337.4226 2.358002
337.9047 2.065033
338.3868 2.275444
338.8690 2.559391
339.3511 2.766197
339.8332 2.867596
340.3153 2.828541
340.7974 2.618874
341.2795 2.258488
341.7617 1.864735
342.2438 1.214249
342.7259 0.7973180
343.2080 0.8859250
343.6901 1.236931
344.1722 1.478546
344.6544 1.454609
345.1365 1.296997
345.6186 1.282043
346.1007 1.607685
346.5828 1.772991
347.0649 1.619892
347.5471 1.398655
348.0292 1.387527
348.5113 1.611546
348.9934 1.804802
349.4755 1.612427
349.9576 0.8599470
350.4398 0.4590640
350.9219 0.5481110
351.4040 0.7981640
351.8861 1.204231
352.3682 1.645988
352.8503 1.829571
353.3325 1.486065
353.8146 0.6693460
354.2967 0.2275810
354.7788 0.5430680
355.2609 0.7912710
355.7430 0.7866740
356.2252 0.6179960
356.7073 0.4108390
357.1894 0.2226750
357.6715 4.7885999E-02
358.1536 0.1261830
358.6357 0.2861440
359.1179 0.4740640
359.5999 0.8410030
360.0821 1.141956
360.5642 1.104351
361.0463 0.7117310
361.5284 0.2452130
362.0105 8.4881000E-02
362.4926 0.3690870
362.9748 0.4182660
363.4569 0.1661110
363.9390 0.6004940
364.4211 0.4081540
364.9032 0.2460020
365.3853 0.8686710
365.8675 1.087650
366.3496 0.9401740
366.8317 0.7663120
367.3138 0.4060630
367.7959 0.2330170
368.2780 0.4714620
368.7602 0.8826070
369.2423 1.196217
369.7244 1.297691
370.2065 1.216320
370.6886 0.9755100
371.1707 0.4849590
371.6529 6.3541003E-02
372.1350 0.3855670
372.6171 0.6584550
373.0992 0.4826050
373.5813 0.1154820
374.0634 0.7005200
374.5456 0.6982960
375.0277 6.2820002E-02
375.5098 0.1221770
375.9919 0.7532310
376.4740 1.435440
376.9561 1.137245
377.4383 0.2076030
377.9204 0.5192950
378.4025 0.5084990
378.8846 1.0750000E-02
379.3667 0.2763370
379.8488 0.2710490
380.3310 0.2679060
380.8131 0.4967690
381.2952 0.7403030
381.7773 0.7200890
382.2594 0.3162730
382.7415 0.1243670
383.2237 0.1562390
383.7058 0.2158360
384.1879 0.4521680
384.6700 0.4281960
385.1521 0.2060090
385.6342 0.2511140
386.1164 0.9094200
386.5985 1.375675
387.0806 1.147831
387.5627 0.5950160
388.0448 0.7084240
388.5269 1.747936
389.0091 2.836231
389.4912 3.321636
389.9733 3.375061
390.4554 3.318489
390.9375 3.105740
391.4196 2.909069
391.9018 2.877682
392.3839 3.002327
392.8660 3.225494
393.3481 3.555691
393.8302 3.945568
394.3123 4.327221
394.7945 4.753704
395.2766 5.011433
395.7587 4.846333
396.2408 4.503345
396.7229 4.425961
397.2050 4.728527
397.6872 5.138691
398.1693 5.330357
398.6514 5.273239
399.1335 5.423721
399.6156 6.004253
400.0977 6.631771
400.5798 7.059650
401.0620 7.303970
401.5441 7.424374
402.0262 7.402237
402.5083 7.309208
402.9904 7.540180
403.4725 8.530136
403.9547 9.261841
404.4368 9.304958
404.9189 9.072853
405.4010 9.109360
405.8831 9.577175
406.3652 10.21843
406.8474 10.64477
407.3295 10.72182
407.8116 10.95418
408.2937 11.50431
408.7758 12.05160
409.2579 12.35262
409.7401 12.47044
410.2222 12.67497
410.7043 13.19875
411.1864 13.97522
411.6685 14.44464
412.1506 14.26350
412.6328 14.19489
413.1149 14.41689
413.5970 14.75539
414.0791 15.00671
414.5612 15.10242
415.0433 15.14820
415.5255 15.30342
416.0076 15.58178
416.4897 15.92435
416.9718 16.58002
417.4539 17.06529
417.9360 17.06097
418.4182 16.68306
418.9003 16.30545
419.3824 16.13516
419.8645 16.15902
420.3466 16.43606
420.8287 17.18655
421.3109 17.80511
421.7930 17.93999
422.2751 17.80569
422.7572 17.59736
423.2393 17.36433
423.7214 17.10879
424.2036 16.83891
424.6857 16.55564
425.1678 16.23011
425.6499 15.77389
426.1320 15.32425
426.6141 15.04054
427.0963 14.90520
427.5784 14.74862
428.0605 14.48418
428.5426 14.18268
429.0247 13.92437
429.5068 13.70021
429.9890 13.58884
430.4711 13.71125
430.9532 13.97046
431.4353 14.02513
431.9174 13.60701
432.3995 13.35794
432.8817 13.91774
433.3638 14.84051
433.8459 15.07894
434.3280 14.24653
434.8101 13.15321
435.2922 12.89812
435.7744 13.68302
436.2565 14.33922
436.7386 14.69324
437.2207 15.00732
437.7028 15.49386
438.1849 16.12916
438.6671 16.74040
439.1492 17.20251
439.6313 17.57111
440.1134 18.11121
440.5955 18.99294
441.0776 19.81454
441.5598 20.50605
442.0418 21.12174
442.5240 21.66862
443.0061 22.17339
443.4882 22.76289
443.9703 23.60471
444.4524 24.74136
444.9345 25.94524
445.4167 27.31005
445.8988 28.64792
446.3809 29.79598
446.8630 30.86800
447.3451 32.13295
447.8272 33.77414
448.3094 35.59334
448.7915 37.01600
449.2736 37.79829
449.7557 38.87874
450.2378 40.79052
450.7199 42.88975
451.2021 44.68573
451.6842 46.13939
452.1663 47.64207
452.6484 49.61597
453.1305 51.92548
453.6126 53.87568
454.0948 55.28346
454.5769 56.64814
455.0590 58.31572
455.5411 60.17283
456.0232 62.03757
456.5053 63.81822
456.9875 65.65662
457.4696 67.72002
457.9517 69.96005
458.4338 72.18461
458.9159 74.31639
459.3980 76.44013
459.8802 78.77570
460.3623 81.38123
460.8444 83.65134
461.3265 85.23571
461.8086 86.59456
462.2907 88.02147
462.7729 89.58472
463.2550 91.46770
463.7371 93.89936
464.2192 96.70193
464.7013 98.91406
465.1834 99.88756
465.6656 101.1388
466.1477 103.1893
466.6298 105.4826
467.1119 107.4694
467.5940 109.0065
468.0761 110.1792
468.5583 111.0592
469.0404 111.6084
469.5225 112.1496
470.0046 112.5195
470.4867 113.0552
470.9688 113.9744
471.4510 115.1052
471.9331 116.1893
472.4152 117.1139
472.8973 117.8725
473.3794 118.4685
473.8615 118.9237
474.3437 119.1184
474.8258 118.8738
475.3079 118.4703
475.7900 118.0742
476.2721 117.6832
476.7542 117.2038
477.2364 116.4158
477.7185 115.5493
478.2006 115.2261
478.6827 115.5960
479.1648 115.6370
479.6469 114.6495
480.1291 113.0582
480.6112 111.7065
481.0933 110.7919
481.5754 109.6802
482.0575 107.7479
482.5396 105.4630
483.0217 103.7811
483.5038 102.9151
483.9860 102.1662
484.4681 100.8875
484.9502 99.05404
485.4323 97.09563
485.9144 95.04177
486.3965 92.83571
486.8787 90.43605
487.3608 87.85747
487.8429 85.04548
488.3250 81.97008
488.8071 78.90250
489.2892 76.40100
489.7714 74.82034
490.2535 72.92165
490.7356 70.63165
491.2177 68.20105
491.6998 65.66257
492.1819 63.06323
492.6641 60.49170
493.1462 58.01236
493.6283 55.60568
494.1104 53.21811
494.5925 50.86609
495.0746 48.52469
495.5568 46.13337
496.0389 43.79044
496.5210 41.51590
497.0031 39.32406
497.4852 37.29024
497.9673 35.59917
498.4495 34.14295
498.9316 32.56335
499.4137 30.80130
499.8958 29.15619
500.3779 27.91907
500.8600 26.84008
501.3422 25.39823
501.8243 23.36903
502.3064 21.41339
502.7885 19.87650
503.2706 18.61301
503.7527 17.30442
504.2349 15.90822
504.7170 14.66582
505.1991 13.83802
505.6812 13.41527
506.1633 12.72652
506.6454 11.48386
507.1276 10.39059
507.6097 9.814434
508.0918 9.526089
508.5739 9.165890
509.0560 8.627934
509.5381 8.008606
510.0203 7.472069
510.5024 7.063034
510.9845 6.585552
511.4666 5.804531
511.9487 5.202232
512.4308 5.119133
512.9130 5.334545
513.3951 5.395184
513.8772 5.050720
514.3593 4.532684
514.8414 4.300644
515.3235 4.393837
515.8057 4.306595
516.2878 3.837120
516.7699 3.291828
517.2520 2.876442
517.7341 2.593300
518.2162 2.458065
518.6984 2.564404
519.1805 2.734440
519.6626 2.780853
520.1447 2.722965
520.6268 2.626438
521.1089 2.522804
521.5911 2.399837
522.0732 2.184368
522.5553 1.736492
523.0374 1.574257
523.5195 2.082264
524.0016 2.697571
524.4838 2.953148
524.9659 2.832863
525.4480 2.531685
525.9301 2.159016
526.4122 1.739193
526.8943 1.529629
527.3765 1.830132
527.8586 1.973099
528.3407 1.801243
528.8228 1.492012
529.3049 1.127533
529.7870 0.7745440
530.2692 0.5838430
530.7513 0.7553180
531.2334 1.212746
531.7155 1.488895
532.1976 1.527504
532.6797 1.496323
533.1619 1.586540
533.6440 1.590878
534.1261 1.139038
534.6082 8.2909003E-02
535.0903 0.7094150
535.5724 0.4112090
536.0546 0.5018840
536.5367 1.020279
537.0188 1.009354
537.5009 0.7460060
537.9830 0.3282050
538.4651 0.1724280
538.9473 0.3721350
539.4294 2.8343000E-02
539.9115 0.2871170
540.3936 0.4512980
540.8757 0.4710010
541.3578 0.3089560
541.8400 8.9339996E-03
542.3221 0.3088720
542.8042 0.4116780
543.2863 0.3201100
543.7684 0.2449870
544.2505 0.1450080
544.7326 0.1096190
545.2147 0.2718770
545.6968 0.4453810
546.1790 0.3402210
546.6611 8.3274998E-02
547.1432 0.4353830
547.6253 0.1588440
548.1074 0.6676330
548.5895 1.080458
549.0717 0.8820590
549.5538 0.6136630
550.0359 0.5892790
550.5180 0.7038170
551.0001 0.8085750
551.4822 0.8636460
551.9644 0.9447290
552.4465 1.215303
552.9286 1.526894
553.4107 1.542341
553.8928 1.192743
554.3749 0.6949540
554.8571 0.1927320
555.3392 0.3072740
555.8213 0.5504490
556.3034 0.4319020
556.7855 0.2273810
557.2676 0.1166170
557.7498 0.4542470
558.2319 0.5643940
558.7140 0.4228820
559.1961 0.2556340
559.6782 0.3536910
560.1603 0.7222940
560.6425 0.7736610
561.1246 0.1570930
561.6067 0.2581710
562.0888 5.7289001E-02
562.5709 0.5641670
563.0530 0.5609420
563.5352 0.1379800
564.0173 0.8320850
564.4994 0.7646100
564.9815 0.2051050
565.4636 0.1240390
565.9457 0.7110200
566.4279 1.248087
566.9100 1.187555
567.3921 0.7060530
567.8742 0.4800610
568.3563 0.6883850
568.8384 0.8517950
569.3206 0.7368680
569.8027 0.5244620
570.2848 0.4723630
570.7669 0.5962070
571.2490 0.6633470
571.7311 0.4436420
572.2133 1.7759001E-02
572.6954 0.2032870
573.1775 0.2244000
573.6596 0.4656370
574.1417 0.2632050
574.6238 5.4441001E-02
575.1060 0.2659130
575.5881 0.3107810
576.0702 0.1465680
576.5523 0.4031410
577.0344 1.179119
577.5165 1.558760
577.9987 1.474169
578.4808 1.281906
578.9629 1.034031
579.4450 0.8263070
579.9271 0.7805960
580.4092 0.9071560
580.8914 1.136089
581.3735 1.703114
581.8556 2.195623
582.3377 1.965132
582.8198 1.123711
583.3019 0.5129530
583.7841 0.6577530
584.2662 1.257275
584.7483 1.471170
585.2304 0.8348460
585.7125 0.5793250
586.1946 0.9542750
586.6768 1.462370
587.1589 1.900246
587.6410 2.205940
588.1231 2.297991
588.6052 2.090286
589.0873 1.762905
589.5695 1.737621
590.0516 2.072031
590.5337 2.274797
591.0158 2.113453
591.4979 1.959717
591.9800 2.228333
592.4622 2.790249
592.9443 3.094328
593.4264 2.791107
593.9085 2.376945
594.3906 2.229536
594.8727 2.292913
595.3549 2.463778
595.8370 2.723524
596.3191 2.899422
596.8012 2.734495
597.2833 2.144957
597.7654 1.892572
598.2476 2.312799
598.7297 2.628035
599.2118 2.429144
599.6939 2.059477
600.1760 2.006657
600.6581 2.398003
601.1403 2.901337
601.6224 3.167940
602.1045 3.202965
602.5866 3.048779
603.0687 2.545696
603.5508 2.191292
604.0330 2.374680
604.5151 2.812334
604.9972 3.162550
605.4793 3.395798
605.9614 3.498337
606.4435 3.398886
606.9257 3.248777
607.4078 3.246189
607.8899 3.376799
608.3720 3.436192
608.8541 3.280624
609.3362 3.009005
609.8184 3.001432
610.3005 3.657310
610.7826 3.959038
611.2647 3.741880
611.7468 3.386826
612.2289 3.079084
612.7111 2.854170
613.1932 2.625641
613.6753 2.329136
614.1574 2.138111
614.6395 2.533754
615.1216 3.580030
615.6038 4.104206
616.0859 3.701324
616.5680 3.050913
617.0501 2.588814
617.5322 2.302744
618.0143 2.238131
618.4965 2.636854
618.9786 3.087135
619.4607 3.304945
619.9428 3.328976
620.4249 3.253386
620.9070 3.149223
621.3892 3.155819
621.8713 3.394686
622.3534 3.841957
622.8355 3.932474
623.3176 3.296648
623.7997 2.823935
624.2819 2.667059
624.7640 2.674875
625.2461 2.765846
625.7282 2.893955
626.2103 2.968025
626.6924 2.846445
627.1745 2.630993
627.6566 2.597958
628.1387 2.763542
628.6208 2.878939
629.1030 2.790344
629.5851 2.665474
630.0672 2.837669
630.5493 3.345362
631.0314 3.625711
631.5135 3.357056
631.9957 3.012270
632.4778 2.836178
632.9599 2.828333
633.4420 3.032253
633.9241 3.456896
634.4063 3.843357
634.8884 3.721209
635.3705 2.968767
635.8526 2.551905
636.3347 2.652864
636.8168 2.805922
637.2990 2.902966
637.7811 2.953064
638.2632 2.993658
638.7453 3.013802
639.2274 2.953306
639.7095 2.678635
640.1917 2.322807
640.6738 2.122181
641.1559 2.077068
641.6380 2.114563
642.1201 2.206049
642.6022 2.321630
643.0844 2.408670
643.5665 2.502693
644.0486 2.531771
644.5307 2.449711
645.0128 2.340729
