#Shining_header
#Data type:raman_database
#CAS:Not entered
#Material scientific name:Anorthite
#Manufacturer:Not entered
#Laser model:Not entered
#Spectrometer model:Not entered
#Testing unit:Not entered
#Test time:Not entered
#Other experimental details:Not entered
#Shining_data
146.2648 0.0000000E+00
146.7469 22.92407
147.2291 26.91602
147.7112 3.618408
148.1933 6.822754
148.6754 0.2060550
149.1575 15.20093
149.6396 21.89038
150.1218 17.95898
150.6039 22.41431
151.0860 48.35840
151.5681 88.69849
152.0502 123.4109
152.5323 146.1846
153.0145 158.8806
153.4966 165.7244
153.9787 165.0132
154.4608 163.8113
154.9429 166.2510
155.4250 172.2114
155.9072 183.8162
156.3893 210.7642
156.8714 239.7239
157.3535 256.4304
157.8356 252.9841
158.3177 245.0046
158.7999 258.8855
159.2820 303.7361
159.7641 349.2971
160.2462 381.0813
160.7283 409.1296
161.2104 443.8740
161.6926 489.8062
162.1747 546.8765
162.6568 616.4434
163.1389 723.2615
163.6210 810.6248
164.1031 869.4421
164.5853 899.3174
165.0674 899.6482
165.5495 866.6558
166.0316 798.9976
166.5137 733.0312
166.9958 652.3435
167.4780 588.2017
167.9601 560.6060
168.4422 562.6094
168.9243 571.0007
169.4064 561.7617
169.8885 527.3171
170.3707 503.7556
170.8528 494.7488
171.3349 491.5295
171.8170 487.3181
172.2991 481.7161
172.7813 481.2834
173.2634 496.5215
173.7455 545.8213
174.2276 570.1182
174.7097 544.9697
175.1918 506.2654
175.6740 491.5027
176.1561 512.5537
176.6382 550.4255
177.1203 569.8066
177.6024 563.5259
178.0845 558.5669
178.5667 559.2178
179.0488 564.6619
179.5309 574.0581
180.0130 587.8523
180.4951 604.2239
180.9772 618.8591
181.4594 630.5845
181.9415 643.4099
182.4236 663.3911
182.9057 687.7788
183.3878 702.6870
183.8699 696.4395
184.3521 680.4241
184.8342 677.7114
185.3163 694.6233
185.7984 715.8892
186.2805 728.5046
186.7626 732.3655
187.2448 738.6909
187.7269 754.8345
188.2090 777.9753
188.6911 804.5027
189.1732 825.9021
189.6553 847.8308
190.1375 889.4888
190.6196 966.2148
191.1017 1026.051
191.5838 1020.460
192.0659 993.1110
192.5480 991.2367
193.0302 1045.772
193.5123 1131.151
193.9944 1171.841
194.4765 1141.968
194.9586 1110.945
195.4407 1112.413
195.9229 1130.858
196.4050 1141.130
196.8871 1124.447
197.3692 1086.245
197.8513 1063.031
198.3334 1069.974
198.8156 1075.776
199.2977 1070.942
199.7798 1057.190
200.2619 1038.671
200.7440 1017.363
201.2261 993.0044
201.7083 973.5673
202.1904 968.0333
202.6725 959.7529
203.1546 938.0389
203.6367 907.5032
204.1188 883.1560
204.6010 883.5632
205.0831 918.7994
205.5652 921.0297
206.0473 861.4573
206.5294 797.3313
207.0115 751.3619
207.4937 725.5684
207.9758 711.6096
208.4579 702.3645
208.9400 705.0227
209.4221 687.2832
209.9042 628.5498
210.3864 568.5591
210.8685 533.8220
211.3506 527.0374
211.8327 532.3979
212.3148 529.9612
212.7970 517.4797
213.2791 500.6915
213.7612 475.3625
214.2433 448.6353
214.7254 425.3926
215.2075 407.0676
215.6897 392.7267
216.1718 380.6982
216.6539 366.2361
217.1360 365.4418
217.6181 401.6096
218.1002 441.6537
218.5824 446.4800
219.0645 404.0129
219.5466 339.5361
220.0287 296.1152
220.5108 282.8683
220.9929 269.0822
221.4751 251.8376
221.9572 231.6144
222.4393 207.5903
222.9214 178.5565
223.4035 149.0251
223.8856 128.2549
224.3678 116.5233
224.8499 109.4817
225.3320 113.7936
225.8141 121.2765
226.2962 114.5044
226.7783 84.39514
227.2605 43.56226
227.7426 16.46765
228.2247 5.269165
228.7068 3.033813
229.1889 11.50684
229.6710 20.57849
230.1532 32.43860
230.6353 49.80505
231.1174 67.49451
231.5995 76.32068
232.0816 75.42468
232.5637 70.17725
233.0459 60.06616
233.5280 46.85669
234.0101 38.13086
234.4922 39.30444
234.9743 43.85608
235.4564 40.23450
235.9386 25.31274
236.4207 11.49182
236.9028 9.227173
237.3849 16.53674
237.8670 20.43872
238.3491 18.06873
238.8313 7.580688
239.3134 13.67542
239.7955 49.99158
240.2776 84.75134
240.7597 103.1456
241.2418 106.2229
241.7240 109.3229
242.2061 112.2467
242.6882 122.4906
243.1703 150.9834
243.6524 203.9734
244.1345 257.5060
244.6167 285.8887
245.0988 288.9451
245.5809 299.2024
246.0630 326.2159
246.5451 367.1183
247.0272 424.1902
247.5094 502.9558
247.9915 577.6428
248.4736 611.9138
248.9557 601.4818
249.4378 615.1246
249.9199 704.0413
250.4021 811.0990
250.8842 883.6267
251.3663 909.4050
251.8484 920.1423
252.3305 946.4265
252.8126 988.9072
253.2948 1041.606
253.7769 1114.713
254.2590 1190.620
254.7411 1251.011
255.2232 1289.673
255.7053 1331.947
256.1874 1414.660
256.6696 1546.653
257.1517 1663.958
257.6338 1738.399
258.1159 1796.060
258.5980 1850.919
259.0801 1905.638
259.5623 1961.450
260.0444 2021.370
260.5265 2087.148
261.0086 2147.063
261.4907 2200.019
261.9728 2244.146
262.4550 2277.180
262.9371 2298.588
263.4192 2310.411
263.9013 2319.240
264.3834 2329.207
264.8655 2313.884
265.3477 2243.676
265.8298 2159.797
266.3119 2087.697
266.7940 2032.905
267.2761 1980.454
267.7582 1912.716
268.2404 1827.434
268.7225 1739.238
269.2046 1640.254
269.6867 1545.612
270.1688 1467.083
270.6509 1406.286
271.1331 1351.188
271.6152 1288.225
272.0973 1215.567
272.5794 1143.837
273.0615 1062.058
273.5436 990.7112
274.0258 947.8018
274.5079 933.8220
274.9900 925.5946
275.4721 891.5249
275.9542 823.8676
276.4363 780.1328
276.9185 793.4607
277.4006 815.1907
277.8827 822.2374
278.3648 812.2217
278.8469 795.7639
279.3290 781.4231
279.8112 768.6211
280.2933 762.2047
280.7754 773.2937
281.2575 784.0001
281.7396 782.4890
282.2217 768.7583
282.7039 752.6573
283.1860 743.5131
283.6681 741.7969
284.1502 740.3396
284.6323 735.1504
285.1144 731.4202
285.5966 735.3188
286.0787 745.8859
286.5608 753.6797
287.0429 745.0885
287.5250 719.1265
288.0071 708.8264
288.4893 738.7234
288.9714 759.4067
289.4535 745.1090
289.9356 702.7744
290.4177 655.6359
290.8998 623.5928
291.3820 605.2645
291.8641 576.6335
292.3462 524.4036
292.8283 476.2471
293.3104 443.8280
293.7925 425.7371
294.2747 416.1117
294.7568 416.0554
295.2389 421.9987
295.7210 410.4468
296.2031 371.3301
296.6852 329.5565
297.1674 294.6935
297.6495 265.0089
298.1316 237.5640
298.6137 209.1141
299.0958 181.7668
299.5779 164.7820
300.0601 165.3060
300.5422 163.3823
301.0243 150.7189
301.5064 130.8716
301.9885 106.7161
302.4706 73.74487
302.9528 42.69824
303.4349 43.11255
303.9170 88.71423
304.3991 133.1014
304.8812 164.6006
305.3633 182.6832
305.8455 182.1964
306.3276 155.7114
306.8097 120.4406
307.2918 105.6707
307.7739 116.5334
308.2560 129.9373
308.7382 136.8925
309.2203 142.4395
309.7024 150.8278
310.1845 163.0326
310.6666 178.7969
311.1487 201.1617
311.6309 232.1082
312.1130 253.9889
312.5951 246.3413
313.0772 236.1222
313.5593 249.9746
314.0414 294.6478
314.5236 344.3396
315.0057 375.1447
315.4878 387.3496
315.9699 395.0823
316.4520 396.3977
316.9341 399.2855
317.4163 414.8752
317.8984 444.6296
318.3805 467.3813
318.8626 462.1333
319.3447 434.0846
319.8268 415.4629
320.3090 419.8420
320.7911 424.9337
321.2732 407.4963
321.7553 369.1588
322.2374 332.3209
322.7195 310.9440
323.2017 299.5979
323.6838 282.4708
324.1659 255.3065
324.6480 227.0192
325.1301 206.4138
325.6122 191.7203
326.0944 175.8842
326.5765 150.6141
327.0586 124.6868
327.5407 114.6290
328.0228 124.3765
328.5049 135.9723
328.9871 134.4232
329.4692 123.0195
329.9513 112.2074
330.4334 99.85437
330.9155 91.38586
331.3976 96.80396
331.8798 116.3134
332.3619 130.8260
332.8440 125.7035
333.3261 105.7744
333.8082 92.40588
334.2903 91.16479
334.7725 92.16956
335.2546 90.51404
335.7367 86.07336
336.2188 78.28711
336.7010 66.63806
337.1831 51.34180
337.6652 32.74011
338.1473 5.315796
338.6294 16.91174
339.1115 25.32898
339.5937 24.63440
340.0758 26.35840
340.5579 36.17102
341.0400 47.05005
341.5221 41.60425
342.0042 8.196655
342.4864 12.90845
342.9685 4.728271
343.4506 16.21350
343.9327 30.15295
344.4148 31.82202
344.8969 25.89124
345.3791 18.03174
345.8612 6.305176
346.3433 1.886597
346.8254 6.205444
347.3075 7.227051
347.7896 2.116699
348.2718 7.949951
348.7539 14.19763
349.2360 6.566772
349.7181 18.56165
350.2002 33.94617
350.6823 38.51880
351.1645 36.23523
351.6466 22.05725
352.1287 1.565796
352.6108 10.74524
353.0929 3.459717
353.5750 22.29065
354.0572 44.68115
354.5393 67.64575
355.0214 82.96997
355.5035 81.41016
355.9856 72.44666
356.4677 71.05713
356.9499 85.41125
357.4320 110.4586
357.9141 129.9979
358.3962 143.2280
358.8783 151.2158
359.3604 151.7090
359.8426 148.7120
360.3247 145.9116
360.8068 144.4945
361.2889 143.0021
361.7710 138.7838
362.2531 130.3558
362.7353 122.4471
363.2174 109.1088
363.6995 100.9279
364.1816 109.6235
364.6637 133.6526
365.1458 156.3461
365.6280 159.3943
366.1101 141.2841
366.5922 123.8645
367.0743 100.8135
367.5564 86.26233
368.0385 87.85083
368.5207 103.1041
369.0028 125.2441
369.4849 157.0133
369.9670 192.2191
370.4491 201.7578
370.9312 168.2167
371.4134 145.1675
371.8955 174.1893
372.3776 226.5442
372.8597 257.8973
373.3418 244.2106
373.8239 214.2051
374.3061 209.0206
374.7882 231.2686
375.2703 253.4829
375.7524 262.7875
376.2345 266.8495
376.7166 275.7742
377.1988 291.2601
377.6809 309.0826
378.1630 328.5380
378.6451 348.4697
379.1272 363.3031
379.6093 369.9110
380.0915 373.4169
380.5736 382.0254
381.0557 396.4906
381.5378 406.9510
382.0199 398.6851
382.5020 388.7493
382.9842 407.6252
383.4663 461.6093
383.9484 518.9447
384.4305 544.7247
384.9126 535.3297
385.3947 543.1840
385.8769 585.8477
386.3590 633.1392
386.8411 665.9589
387.3232 684.9650
387.8053 698.5961
388.2874 711.7441
388.7696 723.5814
389.2517 726.6112
389.7338 719.3297
390.2159 707.9752
390.6980 688.7437
391.1801 665.3324
391.6623 644.8589
392.1444 630.6237
392.6265 620.9362
393.1086 610.9867
393.5907 600.6826
394.0728 592.9034
394.5550 589.1621
395.0371 584.0250
395.5192 573.4779
396.0013 557.4979
396.4834 538.4380
396.9655 520.2990
397.4477 503.0438
397.9298 490.1880
398.4119 477.6984
398.8940 472.5719
399.3761 487.5140
399.8582 515.4718
400.3404 534.2946
400.8225 526.1013
401.3046 496.7931
401.7867 479.3302
402.2688 480.4117
402.7509 484.2759
403.2331 487.2897
403.7152 489.5272
404.1973 489.2954
404.6794 484.4247
405.1615 481.0135
405.6436 488.9375
406.1258 508.7755
406.6079 526.6262
407.0900 544.8790
407.5721 555.5807
408.0542 545.1935
408.5363 511.7036
409.0185 486.5687
409.5006 500.3486
409.9827 536.1788
410.4648 546.9539
410.9469 522.5292
411.4290 489.1123
411.9112 470.9315
412.3933 465.4227
412.8754 458.0956
413.3575 446.5668
413.8396 432.2275
414.3217 412.3936
414.8039 388.7815
415.2860 373.9429
415.7681 378.3640
416.2502 396.6337
416.7323 401.5391
417.2144 375.2625
417.6966 358.8314
418.1787 379.6178
418.6608 412.8921
419.1429 418.1425
419.6250 380.9648
420.1071 323.4932
420.5893 283.4047
421.0714 272.6433
421.5535 255.9648
422.0356 228.4187
422.5177 199.3700
422.9998 172.0505
423.4820 148.4574
423.9641 132.1216
424.4462 127.4231
424.9283 134.4210
425.4104 138.0464
425.8925 138.4094
426.3747 134.8158
426.8568 122.5699
427.3389 107.4515
427.8210 98.49670
428.3031 100.6757
428.7852 108.3822
429.2674 111.5824
429.7495 111.1964
430.2316 103.2131
430.7137 71.58374
431.1958 41.25012
431.6779 34.40820
432.1601 53.80811
432.6422 73.24634
433.1243 69.68311
433.6064 48.14014
434.0885 30.95789
434.5706 20.75232
435.0528 15.60474
435.5349 14.12122
436.0170 16.16479
436.4991 22.84363
436.9812 42.03149
437.4633 60.86267
437.9455 64.43579
438.4276 53.93127
438.9097 43.46216
439.3918 41.88525
439.8739 45.04773
440.3560 38.16760
440.8382 10.58765
441.3203 9.672974
441.8024 10.84045
442.2845 1.696899
442.7666 7.930664
443.2487 14.99683
443.7309 17.78149
444.2130 12.93982
444.6951 3.843262
445.1772 13.82214
445.6593 8.725464
446.1414 5.308960
446.6236 17.36475
447.1057 39.35291
447.5878 54.61462
448.0699 50.87537
448.5520 31.47351
449.0341 13.98865
449.5163 8.552368
449.9984 17.17798
450.4805 4.520630
450.9626 33.80652
451.4447 46.95801
451.9268 36.88025
452.4090 17.22437
452.8911 3.270142
453.3732 4.891357
453.8553 11.29175
454.3374 16.76306
454.8195 19.98279
455.3017 19.34045
455.7838 15.57251
456.2659 12.19373
456.7480 8.775879
457.2301 7.536377
457.7122 12.52673
458.1944 24.06445
458.6765 38.31458
459.1586 54.35327
459.6407 71.24646
460.1228 86.34558
460.6049 100.2417
461.0871 111.5381
461.5692 116.3265
462.0513 118.8486
462.5334 128.5078
463.0155 148.3948
463.4977 169.2296
463.9798 176.9550
464.4619 163.6124
464.9440 162.6107
465.4261 187.9508
465.9082 212.2766
466.3904 214.4283
466.8725 201.2269
467.3546 195.1737
467.8367 212.0610
468.3188 247.9906
468.8009 283.1101
469.2831 318.2306
469.7652 351.3093
470.2473 387.3177
470.7294 418.3959
471.2115 432.5032
471.6936 427.5414
472.1758 422.8276
472.6579 442.7512
473.1400 486.9808
473.6221 525.3744
474.1042 551.1450
474.5863 575.8201
475.0685 608.3435
475.5506 646.3660
476.0327 682.9929
476.5148 715.7251
476.9969 745.5852
477.4790 774.1685
477.9612 801.3274
478.4433 825.2710
478.9254 846.2629
479.4075 862.3145
479.8896 868.8279
480.3717 867.5782
480.8539 855.5822
481.3360 822.7825
481.8181 783.4072
482.3002 753.0359
482.7823 734.4922
483.2644 724.6517
483.7466 723.6621
484.2287 734.6173
484.7108 718.1897
485.1929 645.1846
485.6750 578.9741
486.1571 539.8241
486.6393 520.0857
487.1214 506.4827
487.6035 493.1809
488.0856 481.5630
488.5677 475.9095
489.0498 479.3528
489.5320 477.7488
490.0141 457.9142
490.4962 441.3522
490.9783 443.7638
491.4604 462.9670
491.9425 482.3888
492.4247 485.5553
492.9068 481.0833
493.3889 485.8265
493.8710 499.6575
494.3531 526.2649
494.8352 578.1737
495.3174 641.1150
495.7995 680.3987
496.2816 678.0321
496.7637 681.5601
497.2458 717.9462
497.7279 774.1917
498.2101 827.9385
498.6922 873.4319
499.1743 916.3787
499.6564 964.5132
500.1385 1018.962
500.6206 1073.838
501.1028 1127.009
501.5849 1182.929
502.0670 1246.131
502.5491 1313.243
503.0312 1378.125
503.5133 1437.850
503.9955 1494.972
504.4776 1556.214
504.9597 1625.690
505.4418 1686.396
505.9239 1730.933
506.4060 1773.256
506.8882 1823.987
507.3703 1881.394
507.8524 1930.933
508.3345 1962.976
508.8166 1978.324
509.2987 1982.334
509.7809 1975.500
510.2630 1963.467
510.7451 1947.305
511.2272 1927.123
511.7093 1904.847
512.1914 1882.425
512.6735 1854.679
513.1556 1812.219
513.6378 1764.493
514.1199 1728.726
514.6020 1708.767
515.0841 1698.126
515.5662 1691.315
516.0483 1690.442
516.5305 1678.084
517.0126 1642.267
517.4947 1609.334
517.9768 1589.553
518.4589 1579.894
518.9410 1577.169
519.4232 1580.457
519.9053 1581.090
520.3874 1559.558
520.8695 1508.415
521.3516 1461.147
521.8337 1432.774
522.3159 1399.677
522.7980 1342.678
523.2801 1268.090
523.7622 1202.722
524.2443 1170.073
524.7264 1149.959
525.2086 1105.424
525.6907 1036.289
526.1728 960.3198
526.6549 878.3069
527.1370 800.2173
527.6191 749.0115
528.1013 737.3044
528.5834 715.7321
529.0655 661.6658
529.5476 594.7885
530.0297 535.7053
530.5118 487.7198
530.9940 446.0393
531.4761 406.1581
531.9582 368.3907
532.4403 340.5479
532.9224 332.9766
533.4045 324.0416
533.8867 304.6278
534.3688 285.5939
534.8509 282.4130
535.3330 298.3082
535.8151 313.7162
536.2972 300.2869
536.7794 258.5703
537.2615 235.2209
537.7436 240.1838
538.2257 250.4470
538.7078 254.9878
539.1899 255.1692
539.6721 252.4004
540.1542 244.5323
540.6363 237.1067
541.1184 238.4899
541.6005 244.5383
542.0826 239.9802
542.5648 218.6877
543.0469 192.1489
543.5290 176.3285
544.0111 175.3167
544.4932 169.9923
544.9753 156.4076
545.4575 142.4265
545.9396 130.8661
546.4217 122.3997
546.9038 120.5609
547.3859 128.2766
547.8680 134.9124
548.3502 109.9666
548.8323 32.24829
549.3144 15.49084
549.7965 5.184448
550.2786 36.43872
550.7607 46.95520
551.2429 39.09668
551.7250 33.77588
552.2071 49.90210
552.6892 71.71399
553.1713 67.91882
553.6534 38.53625
554.1356 17.82263
554.6177 25.04065
555.0998 45.08936
555.5819 45.55371
556.0640 19.70691
556.5461 0.7043460
557.0283 4.659424
557.5104 0.8139650
557.9925 12.25916
558.4746 31.83093
558.9567 50.37476
559.4388 62.61011
559.9210 68.92358
560.4031 71.05457
560.8852 69.48999
561.3673 62.47937
561.8494 38.53552
562.3315 17.65015
562.8137 21.60950
563.2958 49.34949
563.7779 73.46570
564.2600 67.05676
564.7421 40.57373
565.2242 25.05957
565.7064 21.31836
566.1885 27.79602
566.6706 52.72290
567.1527 83.17346
567.6348 89.18665
568.1169 58.72290
568.5991 32.30591
569.0812 24.42029
569.5633 27.24329
570.0454 34.32666
570.5275 43.55969
571.0096 50.65515
571.4918 51.50696
571.9739 46.97729
572.4560 46.98083
572.9381 58.85376
573.4202 65.22583
573.9023 61.23425
574.3845 52.35266
574.8666 41.80725
575.3487 30.92712
575.8308 23.29175
576.3129 25.22266
576.7950 33.55444
577.2772 33.35730
577.7593 21.68799
578.2414 11.85046
578.7235 15.11145
579.2056 24.06189
579.6877 20.90527
580.1699 0.6567380
580.6520 22.08264
581.1341 43.34180
581.6162 57.20740
582.0984 47.92126
582.5805 16.32935
583.0626 13.95715
583.5447 22.03845
584.0269 9.709106
584.5090 0.2480470
584.9911 6.495483
585.4732 9.768799
585.9553 7.650879
586.4374 3.326660
586.9196 0.6112060
587.4017 3.585571
587.8838 6.065796
588.3659 7.792725
588.8480 9.306885
589.3301 13.96936
589.8123 23.33130
590.2944 28.13831
590.7765 20.77051
591.2586 6.202637
591.7407 2.948730
592.2228 5.588257
592.7050 5.453125
593.1871 0.6383060
593.6692 4.631470
594.1513 3.202881
594.6334 3.914673
595.1155 6.382202
595.5977 5.218262
596.0798 27.67432
596.5619 39.35938
597.0440 32.72644
597.5261 28.04065
598.0082 23.22290
598.4904 25.14294
598.9725 46.73572
599.4546 85.62268
599.9367 114.4087
600.4188 103.7366
600.9009 72.94250
601.3831 65.31970
601.8652 82.59167
602.3473 94.63159
602.8294 85.42249
603.3115 66.92896
603.7936 64.66614
604.2758 83.95605
604.7579 97.62549
605.2400 98.25244
605.7221 96.42798
606.2042 99.30713
606.6863 106.5497
607.1685 114.8434
607.6506 125.0812
608.1327 134.3513
608.6148 133.3086
609.0969 115.0315
609.5790 108.4705
610.0612 131.3672
610.5433 158.4098
611.0254 168.5718
611.5075 164.9330
611.9896 156.4474
612.4717 140.6936
612.9539 126.2642
613.4360 127.8053
613.9181 141.2163
614.4002 148.5469
614.8823 143.0332
615.3644 128.8423
615.8466 109.0701
616.3287 76.80725
616.8108 65.64075
617.2929 93.65540
617.7750 121.6534
618.2571 131.4209
618.7393 129.9783
619.2214 131.5488
619.7035 142.0476
620.1856 153.8682
620.6677 156.6079
621.1498 150.4097
621.6320 140.9955
622.1141 125.2505
622.5962 114.0575
623.0783 121.7286
623.5604 140.0288
624.0425 145.5280
624.5247 121.1523
625.0068 103.5737
625.4889 115.3339
625.9710 141.5453
626.4531 163.0878
626.9352 175.3971
627.4174 180.3204
627.8995 178.7778
628.3816 171.1483
628.8637 163.6160
629.3458 149.9265
629.8279 146.7582
630.3101 171.1041
630.7922 197.5491
631.2743 198.3043
631.7564 171.3746
632.2385 147.9722
632.7206 155.6398
633.2028 177.1547
633.6849 180.3337
634.1670 164.9692
634.6491 151.2941
635.1312 149.0761
635.6133 154.4694
636.0955 159.5151
636.5776 163.2629
637.0597 168.9003
637.5418 182.4730
638.0239 191.9284
638.5060 185.8007
638.9882 169.3912
639.4703 156.9885
639.9524 157.8322
640.4345 163.9503
640.9166 157.2788
641.3987 135.8284
641.8809 116.7648
642.3630 100.1230
642.8451 90.02936
643.3272 96.14221
643.8093 113.1460
644.2914 122.0117
644.7736 114.9785
645.2557 105.0581
645.7378 97.26892
646.2199 90.60083
646.7020 82.63428
647.1841 73.39697
647.6663 66.59778
648.1484 66.33618
648.6305 72.04810
649.1126 76.06775
649.5947 80.07349
650.0768 78.93201
650.5590 67.08435
651.0411 53.07385
651.5232 44.36951
652.0053 41.31824
652.4874 37.85388
652.9695 28.22131
653.4517 19.26111
653.9338 21.44702
654.4159 32.56348
654.8980 38.78589
655.3801 33.17322
655.8622 22.05017
656.3444 17.32202
656.8265 23.42468
657.3086 23.80566
657.7907 11.81384
658.2728 1.790283
658.7549 5.688354
659.2371 14.25549
659.7192 7.641113
660.2013 23.89294
660.6834 54.00854
661.1655 46.29858
661.6476 10.02155
662.1298 9.667114
662.6119 5.406372
663.0940 4.350708
663.5761 9.016174
664.0582 8.503418
664.5403 2.232300
665.0225 18.69751
665.5046 32.20020
665.9867 31.86084
666.4688 24.92828
666.9509 13.25879
667.4330 0.2913820
667.9152 32.35223
668.3973 4.576904
668.8794 27.47327
669.3615 37.09192
669.8436 6.337280
670.3257 18.72675
670.8079 16.34106
671.2900 12.82678
671.7721 47.53009
672.2542 11.80975
672.7363 46.17340
673.2184 52.75879
