name Esperite
cas 12
id 12
Raman_shift Intensity
152.3164 0
152.7985 0.174194
153.2806 0.143311
153.7627 0.016998
154.2448 0.403809
154.7269 2.13858
155.2091 5.419983
155.6912 10.01169
156.1733 16.01208
156.6554 23.3353
157.1375 31.51089
157.6196 39.93655
158.1018 48.37115
158.5839 58.07663
159.066 72.13843
159.5481 85.25406
160.0302 94.33557
160.5123 98.49551
160.9945 98.59512
161.4766 96.04636
161.9587 89.03342
162.4408 81.67624
162.9229 72.31598
163.405 63.77115
163.8871 58.12085
164.3693 56.00238
164.8514 57.35959
165.3335 62.69144
165.8156 73.61649
166.2977 85.46857
166.7798 100.0646
167.262 116.2613
167.7441 131.5755
168.2262 146.597
168.7083 158.6973
169.1904 159.363
169.6725 147.0733
170.1547 130.4058
170.6368 109.9512
171.1189 86.74979
171.601 65.16757
172.0831 46.82611
172.5652 32.22351
173.0474 20.65173
173.5295 12.54373
174.0116 6.70401
174.4937 2.761139
174.9758 1.143341
175.4579 0.922089
175.9401 1.609344
176.4222 2.665253
176.9043 3.532928
177.3864 4.733292
177.8685 5.78273
178.3506 5.98735
178.8328 5.405182
179.3149 5.908234
179.797 11.20531
180.2791 17.0298
180.7612 18.87434
181.2433 14.64642
181.7255 7.63765
182.2076 5.275589
182.6897 10.99242
183.1718 15.28052
183.6539 14.95457
184.136 12.86223
184.6181 12.10968
185.1003 14.25224
185.5824 18.27887
186.0645 20.60495
186.5466 20.50464
187.0287 19.31714
187.5108 15.66705
187.993 11.46536
188.4751 9.205231
188.9572 10.35486
189.4393 14.28934
189.9214 17.56314
190.4035 20.41235
190.8857 22.33801
191.3678 22.90625
191.8499 22.49069
192.332 21.68842
192.8141 20.83203
193.2962 19.90555
193.7784 18.76669
194.2605 17.85352
194.7426 16.34821
195.2247 13.59894
195.7068 9.958557
196.1889 6.356598
196.6711 3.261841
197.1532 0.735229
197.6353 1.201691
198.1174 2.381012
198.5995 3.190002
199.0816 3.867035
199.5638 4.398834
200.0459 4.604584
200.528 4.277283
201.0101 3.661194
201.4922 3.477814
201.9743 4.25119
202.4565 4.943268
202.9386 4.528687
203.4207 2.994904
203.9028 1.507782
204.3849 0.936279
204.867 0.68692
205.3492 0.105042
205.8313 1.841309
206.3134 3.795807
206.7955 4.957031
207.2776 5.147644
207.7597 5.451508
208.2419 6.466248
208.724 7.817383
209.2061 9.186523
209.6882 10.4892
210.1703 12.05878
210.6524 13.62045
211.1346 15.27127
211.6167 16.64743
212.0988 17.69144
212.5809 18.40573
213.063 18.63043
213.5451 18.20941
214.0273 17.62076
214.5094 18.04886
214.9915 20.26544
215.4736 22.12961
215.9557 22.82553
216.4378 23.19122
216.92 24.02487
217.4021 25.67096
217.8842 28.00037
218.3663 30.63113
218.8484 33.55374
219.3305 36.85794
219.8127 40.95929
220.2948 45.26004
220.7769 49.11426
221.259 52.22672
221.7411 54.83289
222.2232 57.61627
222.7054 60.09048
223.1875 63.42505
223.6696 68.15768
224.1517 73.61896
224.6338 79.03165
225.1159 84.06824
225.598 88.88196
226.0802 93.92203
226.5623 98.10059
227.0444 103.8457
227.5265 113.2425
228.0086 123.7729
228.4907 132.1423
228.9729 136.9625
229.455 139.0596
229.9371 140.3723
230.4192 141.8621
230.9013 141.2159
231.3834 136.8356
231.8656 130.3404
232.3477 124.1505
232.8298 119.2164
233.3119 114.8542
233.794 109.4464
234.2761 102.5812
234.7583 95.97165
235.2404 89.67865
235.7225 83.98175
236.2046 79.49234
236.6867 76.57657
237.1688 74.48196
237.651 72.07205
238.1331 69.49997
238.6152 66.12192
239.0973 61.25192
239.5794 55.3934
240.0615 49.60968
240.5437 44.09738
241.0258 39.10028
241.5079 34.97571
241.99 31.64151
242.4721 28.82516
242.9542 26.56647
243.4364 24.77063
243.9185 23.07407
244.4006 21.17767
244.8827 19.81253
245.3648 20.28027
245.8469 22.27585
246.329 23.3403
246.8112 21.49475
247.2933 17.74582
247.7754 15.19949
248.2575 14.68277
248.7396 14.70026
249.2217 14.16168
249.7039 13.16782
250.186 12.02353
250.6681 10.89517
251.1502 9.755493
251.6323 8.39859
252.1144 6.539673
252.5966 4.906982
253.0787 3.803864
253.5608 3.194855
254.0429 3.024475
254.525 3.50061
255.0071 4.529236
255.4893 5.727295
255.9714 7.385864
256.4535 8.578156
256.9356 8.501007
257.4177 7.70047
257.8998 7.218506
258.382 7.746246
258.8641 9.098145
259.3462 10.50629
259.8283 11.87726
260.3104 13.36346
260.7925 15.38199
261.2747 17.59106
261.7568 19.36417
262.2389 20.21918
262.721 20.4111
263.2031 20.69424
263.6852 21.07669
264.1674 21.57098
264.6495 22.04587
265.1316 22.64218
265.6137 23.48657
266.0958 24.6261
266.5779 26.07654
267.0601 27.87772
267.5422 30.04666
268.0243 32.5751
268.5064 36.05698
268.9885 39.52173
269.4706 41.94617
269.9528 42.99768
270.4349 43.35596
270.917 44.27295
271.3991 45.79749
271.8812 47.86084
272.3633 50.10724
272.8455 52.99442
273.3276 57.14648
273.8097 62.59515
274.2918 68.47437
274.7739 73.36334
275.256 76.35706
275.7382 80.32346
276.2202 86.46112
276.7024 92.48416
277.1845 96.87695
277.6666 99.50882
278.1487 101.3629
278.6308 103.7549
279.1129 107.3151
279.5951 109.0906
280.0772 108.5675
280.5593 107.0788
281.0414 105.1589
281.5235 102.9109
282.0056 100.255
282.4878 97.09457
282.9699 93.36115
283.452 89.49005
283.9341 84.18588
284.4162 79.97104
284.8983 79.03061
285.3805 80.22699
285.8626 80.45447
286.3447 77.14157
286.8268 70.38034
287.3089 65.10864
287.791 61.21487
288.2732 58.76999
288.7553 58.49939
289.2374 59.69345
289.7195 61.18863
290.2016 62.32697
290.6837 63.10172
291.1659 63.4949
291.648 63.19287
292.1301 62.86502
292.6122 62.39871
293.0943 62.02277
293.5764 62.28284
294.0586 63.4736
294.5407 64.93457
295.0228 64.87906
295.5049 61.1131
295.987 58.47263
296.4691 57.89316
296.9513 58.19244
297.4334 58.02466
297.9155 56.96909
298.3976 55.70712
298.8797 55.39203
299.3618 56.6412
299.844 57.79169
300.3261 58.45197
300.8082 59.2406
301.2903 61.04486
301.7724 63.86884
302.2545 66.5289
302.7367 67.62885
303.2188 66.7471
303.7009 65.659
304.183 64.92075
304.6651 63.54059
305.1472 60.86523
305.6294 56.90955
306.1115 52.08148
306.5936 46.71768
307.0757 40.78961
307.5578 34.10068
308.0399 24.85223
308.5221 16.7226
309.0042 11.7446
309.4863 9.255188
309.9684 7.529053
310.4505 5.568451
310.9326 3.366516
311.4148 0.86557
311.8969 2.836761
312.379 5.758789
312.8611 7.488098
313.3432 8.1138
313.8253 7.547394
314.3075 5.660248
314.7896 3.097656
315.2717 1.510956
315.7538 1.371887
316.2359 1.52301
316.718 2.038635
317.2001 2.741058
317.6823 3.64856
318.1644 4.722992
318.6465 5.40976
319.1286 4.821777
319.6107 2.216766
320.0928 0.094116002
320.575 1.518311
321.0571 2.694519
321.5392 3.093658
322.0213 2.859863
322.5034 3.065063
322.9855 4.974579
323.4677 9.063324
323.9498 11.34888
324.4319 10.31668
324.914 9.158813
325.3961 9.480103
325.8782 11.09161
326.3604 13.0126
326.8425 14.55878
327.3246 15.78857
327.8067 17.42218
328.2888 19.55582
328.7709 21.92761
329.2531 24.8031
329.7352 27.81342
330.2173 30.21497
330.6994 31.612
331.1815 32.56299
331.6636 34.6098
332.1458 38.72681
332.6279 42.80841
333.11 46.54218
333.5921 50.30988
334.0742 54.44174
334.5563 59.01373
335.0385 64.11642
335.5206 69.9054
336.0027 76.93427
336.4848 83.2478
336.9669 88.19577
337.449 93.07782
337.9312 98.77216
338.4133 105.312
338.8954 112.124
339.3775 118.6685
339.8596 124.9177
340.3417 131.4536
340.8239 137.8686
341.306 144.9095
341.7881 152.3801
342.2702 160.7156
342.7523 170.8975
343.2344 183.6283
343.7166 198.2731
344.1987 211.6116
344.6808 220.057
345.1629 231.4158
345.645 246.8146
346.1271 265.2324
346.6093 285.7498
347.0914 307.8352
347.5735 331.4595
348.0556 356.226
348.5377 383.2553
349.0198 409.6887
349.502 434.9481
349.9841 460.119
350.4662 486.4967
350.9483 513.6891
351.4304 539.7437
351.9125 562.8245
352.3947 583.4422
352.8768 598.3596
353.3589 608.4907
353.841 611.7544
354.3231 606.8734
354.8052 594.3813
355.2874 575.0533
355.7695 549.0037
356.2516 517.0284
356.7337 482.8751
357.2158 444.0529
357.6979 406.3012
358.18 370.3049
358.6621 336.0751
359.1443 303.5073
359.6264 272.4043
360.1085 243.6046
360.5906 218.5636
361.0727 198.1714
361.5548 178.937
362.037 160.0607
362.5191 142.7155
363.0012 127.8257
363.4833 115.2836
363.9654 104.4115
364.4475 94.49524
364.9297 85.50836
365.4118 77.96722
365.8939 72.8175
366.376 68.17908
366.8581 63.49536
367.3402 58.73029
367.8224 53.79358
368.3045 48.37329
368.7866 42.98175
369.2687 39.46893
369.7508 38.86713
370.2329 37.36713
370.7151 32.98309
371.1972 27.65338
371.6793 23.16663
372.1614 20.12335
372.6435 18.07361
373.1256 16.32098
373.6078 14.73773
374.0899 14.00153
374.572 15.40924
375.0541 16.61914
375.5362 15.57312
376.0183 12.43689
376.5005 9.339905
376.9826 7.834656
377.4647 7.693909
377.9468 7.451721
378.4289 6.624451
378.911 6.297607
379.3932 7.687805
379.8753 10.04608
380.3574 11.91296
380.8395 12.24261
381.3216 12.43896
381.8037 14.57697
382.2859 18.69464
382.768 22.26459
383.2501 24.04413
383.7322 24.7124
384.2143 25.42877
384.6964 26.17554
385.1786 27.07703
385.6607 28.28015
386.1428 29.6853
386.6249 30.97736
387.107 32.00708
387.5891 33.09949
388.0713 34.30914
388.5534 35.64581
389.0355 38.49756
389.5176 43.80316
389.9997 50.3454
390.4818 56.83783
390.964 63.27667
391.4461 70.41974
391.9282 78.74432
392.4103 88.27679
392.8924 98.74945
393.3745 108.8998
393.8567 121.2529
394.3388 137.9314
394.8209 157.3739
395.303 176.6337
395.7851 194.9138
396.2672 211.9871
396.7494 227.9483
397.2315 244.0922
397.7136 255.3276
398.1957 262.5955
398.6778 264.1893
399.1599 257.8889
399.642 243.9964
400.1241 225.1714
400.6063 203.3412
401.0884 178.3215
401.5705 153.9736
402.0526 128.2106
402.5347 105.255
403.0168 86.49951
403.499 71.37555
403.9811 59.45459
404.4632 50.60883
404.9453 43.77509
405.4274 36.29828
405.9095 26.51086
406.3917 19.12433
406.8738 15.14996
407.3559 12.72028
407.838 11.11353
408.3201 9.869568
408.8022 8.090393
409.2844 4.540344
409.7665 0.985046
410.2486 4.876038
410.7307 6.225464
411.2128 6.786499
411.6949 6.809875
412.1771 6.455811
412.6592 5.927917
413.1413 5.347168
413.6234 4.583008
414.1055 3.128113
414.5876 0.432495
415.0698 1.306458
415.5519 1.094727
416.034 0.046691999
416.5161 1.601196
416.9982 3.677307
417.4803 5.059021
417.9625 4.763489
418.4446 2.915405
418.9267 0.107605
419.4088 4.28064
419.8909 8.399292
420.373 11.14294
420.8552 12.76227
421.3373 13.56604
421.8194 13.32599
422.3015 12.65881
422.7836 11.86102
423.2657 10.95007
423.7479 11.4444
424.23 14.46954
424.7121 18.81525
425.1942 22.27271
425.6763 24.43872
426.1584 27.68689
426.6406 33.36377
427.1227 40.70581
427.6048 48.66949
428.0869 57.21503
428.569 65.5069
429.0511 72.61481
429.5333 78.53864
430.0154 84.86395
430.4975 93.44128
430.9796 100.7035
431.4617 105.8621
431.9438 108.1373
432.426 105.1761
432.9081 95.46283
433.3902 81.4458
433.8723 68.79889
434.3544 57.1084
434.8365 47.73065
435.3187 41.8028
435.8008 37.45319
436.2829 33.07898
436.765 28.5918
437.2471 25.086
437.7292 23.71326
438.2114 24.53314
438.6935 24.90808
439.1756 23.4491
439.6577 23.19238
440.1398 25.32837
440.6219 29.06274
441.104 33.4306
441.5862 37.92749
442.0683 42.29266
442.5504 45.78918
443.0325 47.54907
443.5146 51.42059
443.9967 58.39417
444.4789 66.64655
444.961 75.7998
445.4431 85.79395
445.9252 96.40833
446.4073 106.9919
446.8894 117.6456
447.3716 129.8303
447.8537 144.3687
448.3358 159.0255
448.8179 172.5765
449.3 185.6133
449.7821 198.7463
450.2643 211.8734
450.7464 226.1509
451.2285 242.9974
451.7106 262.0184
452.1927 280.8081
452.6748 298.884
453.157 316.3683
453.6391 332.9037
454.1212 348.7643
454.6033 365.451
455.0854 382.649
455.5675 401.2001
456.0497 420.8726
456.5318 442.1382
457.0139 467.7051
457.496 498.5331
457.9781 535.1334
458.4602 579.801
458.9424 632.8259
459.4245 691.3241
459.9066 754.5314
460.3887 822.9731
460.8708 899.1828
461.3529 982.5621
461.8351 1067.854
462.3172 1152.149
462.7993 1235.352
463.2814 1303.876
463.7635 1364.226
464.2456 1403.714
464.7278 1417.333
465.2099 1408.965
465.692 1382.104
466.1741 1338.337
466.6562 1282.074
467.1383 1220.203
467.6205 1151.456
468.1026 1078.652
468.5847 999.4571
469.0668 918.5946
469.5489 835.6429
470.031 752.7004
470.5132 675.0159
470.9953 605.5721
471.4774 543.6116
471.9595 487.6018
472.4416 438.1669
472.9237 392.8685
473.4059 350.9207
473.888 313.0875
474.3701 280.5375
474.8522 253.6251
475.3343 230.1416
475.8164 209.9706
476.2986 192.4198
476.7807 175.1384
477.2628 157.5933
477.7449 141.4903
478.227 128.5129
478.7091 118.2142
479.1913 108.3757
479.6734 98.28979
480.1555 89.30774
480.6376 82.19019
481.1197 76.68109
481.6018 72.53845
482.0839 69.76971
482.566 67.41772
483.0482 64.09625
483.5303 59.42657
484.0124 55.0943
484.4945 51.1676
484.9766 47.47302
485.4587 43.64679
485.9409 39.97064
486.423 37.04388
486.9051 35.18719
487.3872 34.35156
487.8693 34.5827
488.3514 37.39886
488.8336 38.39429
489.3157 36.85376
489.7978 34.02173
490.2799 30.29047
490.762 25.96082
491.2441 21.59076
491.7263 17.34058
492.2084 13.44684
492.6905 11.30902
493.1726 11.76044
493.6547 11.97424
494.1368 10.42493
494.619 8.224915
495.1011 6.556763
495.5832 5.717041
496.0653 4.719543
496.5474 2.628357
497.0295 0.237915
497.5117 3.050659
497.9938 5.826111
498.4759 7.942871
498.958 8.653931
499.4401 8.182129
499.9222 7.866272
500.4044 8.612915
500.8865 8.684814
501.3686 6.149536
501.8507 2.412659
502.3328 0.636414
502.8149 1.968262
503.2971 4.283142
503.7792 4.460266
504.2613 1.471436
504.7434 0.0071410001
505.2255 1.730103
505.7076 3.117737
506.1898 1.998779
506.6719 0.738953
507.154 3.021545
507.6361 3.743774
508.1182 3.633728
508.6003 4.072327
509.0825 4.405518
509.5646 7.077393
510.0467 15.30713
510.5288 23.3642
511.0109 27.93573
511.493 29.4588
511.9752 30.36926
512.4573 31.75928
512.9394 33.82166
513.4215 37.28259
513.9036 42.40698
514.3857 47.3761
514.8679 51.53357
515.35 55.17883
515.8321 58.36694
516.3142 60.92957
516.7963 64.60046
517.2784 70.6499
517.7606 78.02979
518.2427 84.88403
518.7248 91.1637
519.2069 99.05957
519.689 110.3018
520.1711 124.2843
520.6533 137.5613
521.1354 151.4535
521.6175 163.1611
522.0996 172.0852
522.5817 178.65
523.0638 181.6023
523.546 181.6633
524.0281 183.0029
524.5102 189.5403
524.9923 201.1447
525.4744 215.4753
525.9565 234.9756
526.4387 253.9347
526.9208 272.1952
527.4029 288.9478
527.885 304.6017
528.3671 318.9636
528.8492 328.0383
529.3314 328.0273
529.8135 319.0992
530.2956 301.3314
530.7777 271.0417
531.2598 239.6306
531.7419 213.11
532.2241 190.4501
532.7062 170.0254
533.1883 151.2936
533.6704 135.4312
534.1525 123.5345
534.6346 115.0201
535.1168 108.4338
535.5989 103.4441
536.081 100.4762
536.5631 100.22
537.0452 102.8373
537.5273 105.6903
538.0095 106.3071
538.4916 109.8826
538.9737 117.942
539.4558 130.3232
539.9379 147.1404
540.42 168.2385
540.9022 192.3702
541.3843 217.5707
541.8664 245.3389
542.3485 272.4937
542.8306 307.0941
543.3127 341.8942
543.7948 378.5299
544.2769 413.2025
544.759 441.2292
545.2411 461.4069
545.7233 471.7832
546.2054 470.595
546.6875 457.6886
547.1696 428.832
547.6517 377.5529
548.1339 321.4607
548.616 272.4388
549.0981 230.0951
549.5802 194.5134
550.0623 166.6379
550.5444 144.8127
551.0266 129.2719
551.5087 118.7992
551.9908 110.6322
552.4729 103.9479
552.955 99.44434
553.4371 98.32898
553.9193 101.3942
554.4014 103.4973
554.8835 103.547
555.3656 103.3197
555.8477 102.6776
556.3298 102.6106
556.812 104.3497
557.2941 108.4391
557.7762 114.7673
558.2583 122.6691
558.7404 131.7321
559.2225 144.439
559.7047 161.3683
560.1868 181.589
560.6689 204.1425
561.151 228.9985
561.6331 256.437
562.1152 286.1345
562.5974 320.0038
563.0795 361.0082
563.5616 407.7462
564.0437 456.4144
564.5258 507.6285
565.0079 555.6639
565.4901 597.3805
565.9722 631.5986
566.4543 652.714
566.9364 660.8113
567.4185 656.2599
567.9006 638.1384
568.3828 607.3196
568.8649 562.6814
569.347 505.2428
569.8291 441.5297
570.3112 378.6133
570.7933 316.0844
571.2755 261.5684
571.7576 215.6736
572.2397 177.0448
572.7218 146.2365
573.2039 121.6078
573.686 101.9857
574.1682 86.88794
574.6503 74.69458
575.1324 63.5946
575.6145 54.00867
576.0966 48.57971
576.5787 48.50659
577.0609 48.37695
577.543 43.74597
578.0251 37.18567
578.5072 34.87671
578.9893 38.5415
579.4714 42.8324
579.9536 47.11877
580.4357 50.19482
580.9178 49.69348
581.3999 45.85803
581.882 42.01318
582.3641 40.51978
582.8463 41.3374
583.3284 44.2301
583.8105 50.84338
584.2926 57.2832
584.7747 63.75854
585.2568 69.63501
585.739 73.58301
586.2211 76.35999
586.7032 80.526
587.1853 88.54834
587.6674 98.94287
588.1495 107.2886
588.6317 113.3939
589.1138 118.793
589.5959 124.3551
590.078 129.0281
590.5601 132.3877
591.0422 134.4662
591.5244 132.6595
592.0065 123.6241
592.4886 112.3425
592.9707 102.5671
593.4528 94.44678
593.9349 87.69666
594.4171 82.23657
594.8992 77.91113
595.3813 74.32166
595.8634 70.9082
596.3455 70.05383
596.8276 74.41089
597.3098 78.16467
597.7919 78.58887
598.274 76.80115
598.7561 74.88196
599.2382 73.66272
599.7203 72.66724
600.2025 71.63489
600.6846 70.52588
601.1667 67.79504
601.6488 63.1106
602.1309 57.19519
602.613 49.90894
603.0952 41.82703
603.5773 34.02991
604.0594 25.87183
604.5415 19.4978
605.0236 16.89941
605.5057 16.43677
605.9879 15.85083
606.47 14.78333
606.9521 13.07239
607.4342 10.34607
607.9163 6.900269
608.3984 5.09082
608.8806 6.626831
609.3627 7.456543
609.8448 7.368042
610.3269 6.365479
610.809 3.466919
611.2911 0.607666
611.7733 3.041504
612.2554 1.251831
612.7375 2.854614
613.2196 5.353638
613.7017 6.303589
614.1838 5.444092
614.666 1.57959
615.1481 2.796753
615.6302 4.56543
616.1123 3.917847
616.5944 3.332031
617.0765 3.686279
617.5587 3.880737
618.0408 2.85022
618.5229 1.122559
619.005 0.061523002
619.4871 0.276855
619.9692 0.076172002
620.4514 0.503784
620.9335 1.069824
621.4156 1.118286
621.8977 0.946655
622.3798 0.166504
622.8619 4.478516
623.3441 8.784912
623.8262 8.453735
624.3083 2.578003
624.7904 3.237427
625.2725 3.335083
625.7546 0.441162
626.2367 3.401489
626.7188 5.415649
627.2009 5.387939
627.683 1.775146
628.1652 3.464233
628.6473 5.680786
629.1294 4.273804
629.6115 2.529175
630.0936 0.825195
630.5757 0.991821
631.0579 3.222778
631.54 5.651855
632.0221 7.719482
632.5042 9.110962
632.9863 10.29529
633.4684 12.4906
633.9506 16.33191
634.4327 17.99438
634.9148 15.61414
635.3969 13.11438
635.879 12.69434
636.3611 13.33459
636.8433 13.28674
637.3254 11.7804
637.8075 10.64758
638.2896 12.01953
638.7717 14.47046
639.2538 15.16431
639.736 13.62842
640.2181 11.38635
640.7002 9.542236
641.1823 8.057617
641.6644 6.660156
642.1465 5.839844
642.6287 4.384888
643.1108 0.767944
643.5929 2.067627
644.075 1.402832
644.5571 1.623413
645.0392 3.907593
645.5214 3.598877
646.0035 2.59436
646.4856 4.380737
646.9677 8.94165
647.4498 12.97314
647.9319 16.04321
648.4141 18.16479
648.8962 19.00623
649.3783 18.84192
649.8604 18.59351
650.3425 18.55615
650.8246 18.14282
651.3068 16.8728
651.7889 15.13867
652.271 13.48364
652.7531 11.99695
653.2352 10.31921
653.7173 7.986816
654.1995 5.39978
654.6816 4.437988
655.1637 6.112915
655.6458 7.033203
656.1279 5.785767
656.61 4.307373
657.0922 3.529419
657.5743 3.494263
658.0564 4.116333
658.5385 5.947144
659.0206 7.615601
659.5027 7.656738
659.9849 6.47644
660.467 5.196899
660.9491 4.067871
661.4312 2.904053
661.9133 1.392822
662.3954 0.355469
662.8776 0.845581
663.3597 1.350586
663.8418 2.958252
664.3239 3.237671
664.806 3.15625
665.2881 3.372803
665.7703 3.990112
666.2524 4.984497
666.7345 6.572754
667.2166 8.233154
667.6987 9.236206
668.1808 9.566406
668.663 8.371704
669.1451 4.505737
669.6272 1.084961
670.1093 2.162964
670.5914 7.265137
671.0735 10.03931
671.5557 8.553223
672.0378 6.935791
672.5199 6.449341
673.002 6.330566
673.4841 6.133179
673.9662 5.80603
674.4484 5.00708
674.9305 3.250366
675.4126 1.062622
675.8947 0.176636
676.3768 0.656372
676.8589 2.477783
677.3411 7.07666
677.8232 11.35388
678.3053 12.38074
678.7874 10.98279
679.2695 10.25037
679.7516 12.58264
680.2338 13.672
680.7159 8.741333
681.198 1.723145
681.6801 0.65979
682.1622 2.370239
682.6443 6.407104
683.1265 8.379028
683.6086 8.717163
684.0907 8.227417
684.5728 6.260132
685.0549 4.79126
685.537 4.20752
686.0192 3.790039
686.5013 3.471802
686.9834 3.397827
687.4655 3.356934
687.9476 2.814453
688.4297 3.023315
688.9119 5.82312
689.394 10.06592
689.8761 13.229
690.3582 14.88196
690.8403 15.18457
691.3224 14.2395
691.8046 12.14539
692.2867 9.184814
692.7688 3.130615
